# This file contains the conversion factor from S/N per pixel    
# to S/N per resolution element (for weak spectral features).    
# This file was created from the B2lookup.m matlab function.     
# The first columns is the wavelength and the sencond one        
# is the conversion factor.                                      
# Author: Fran. R.                                               
                                                                 
363.00   1.55465484 
363.10   1.55603079 
363.20   1.55733766 
363.30   1.55857562 
363.40   1.55974482 
363.50   1.56084544 
363.60   1.56187760 
363.70   1.56284145 
363.80   1.56373712 
363.90   1.56456471 
364.00   1.56532435 
364.10   1.56601612 
364.20   1.49288489 
364.30   1.49612904 
364.40   1.49929974 
364.50   1.50239745 
364.60   1.50542261 
364.70   1.50837568 
364.80   1.51125705 
364.90   1.51406716 
365.00   1.51680639 
365.10   1.51947513 
365.20   1.52207374 
365.30   1.52460259 
365.40   1.52706202 
365.50   1.52945237 
365.60   1.53177396 
365.70   1.53402710 
365.80   1.53621209 
365.90   1.53832924 
366.00   1.54037880 
366.10   1.54236106 
366.20   1.54427627 
366.30   1.54612468 
366.40   1.54790654 
366.50   1.54962206 
366.60   1.55127148 
366.70   1.55285500 
366.80   1.55437282 
366.90   1.55582514 
367.00   1.55721213 
367.10   1.55853398 
367.20   1.55979085 
367.30   1.56098289 
367.40   1.56211026 
367.50   1.56317309 
367.60   1.56417151 
367.70   1.56510566 
367.80   1.56597563 
367.90   1.56678155 
368.00   1.56752351 
368.10   1.49519552 
368.20   1.49834818 
368.30   1.50143139 
368.40   1.50444558 
368.50   1.50739117 
368.60   1.51026856 
368.70   1.51307813 
368.80   1.51582027 
368.90   1.51849533 
369.00   1.52110368 
369.10   1.52364565 
369.20   1.52612157 
369.30   1.52853178 
369.40   1.53087657 
369.50   1.53315625 
369.60   1.53537111 
369.70   1.53752142 
369.80   1.53960747 
369.90   1.54162950 
370.00   1.54358777 
370.10   1.54548253 
370.20   1.54731401 
370.30   1.54908242 
370.40   1.55078799 
370.50   1.55243093 
370.60   1.55401143 
370.70   1.55552968 
370.80   1.55698587 
370.90   1.55838016 
371.00   1.55971273 
371.10   1.56098374 
371.20   1.56219332 
371.30   1.56334164 
371.40   1.56442881 
371.50   1.56545497 
371.60   1.56642024 
371.70   1.56732473 
371.80   1.56816855 
371.90   1.56895179 
372.00   1.56967454 
372.10   1.49430130 
372.20   1.49743660 
372.30   1.50050558 
372.40   1.50350865 
372.50   1.50644620 
372.60   1.50931861 
372.70   1.51212626 
372.80   1.51486951 
372.90   1.51754870 
373.00   1.52016418 
373.10   1.52271627 
373.20   1.52520529 
373.30   1.52763154 
373.40   1.52999534 
373.50   1.53229696 
373.60   1.53453669 
373.70   1.53671479 
373.80   1.53883154 
373.90   1.54088717 
374.00   1.54288194 
374.10   1.54481608 
374.20   1.54668983 
374.30   1.54850338 
374.40   1.55025697 
374.50   1.55195079 
374.60   1.55358504 
374.70   1.55515991 
374.80   1.55667557 
374.90   1.55813220 
375.00   1.55952997 
375.10   1.56086902 
375.20   1.56214952 
375.30   1.56337161 
375.40   1.56453542 
375.50   1.56564109 
375.60   1.56668873 
375.70   1.56767847 
375.80   1.56861041 
375.90   1.56948466 
376.00   1.57030131 
376.10   1.57106045 
376.20   1.49652642 
376.30   1.49958428 
376.40   1.50257888 
376.50   1.50551059 
376.60   1.50837980 
376.70   1.51118684 
376.80   1.51393208 
376.90   1.51661583 
377.00   1.51923844 
377.10   1.52180021 
377.20   1.52430146 
377.30   1.52674247 
377.40   1.52912354 
377.50   1.53144495 
377.60   1.53370697 
377.70   1.53590986 
377.80   1.53805388 
377.90   1.54013926 
378.00   1.54216626 
378.10   1.54413509 
378.20   1.54604599 
378.30   1.54789916 
378.40   1.54969481 
378.50   1.55143315 
378.60   1.55311436 
378.70   1.55473863 
378.80   1.55630614 
378.90   1.55781706 
379.00   1.55927156 
379.10   1.56066978 
379.20   1.56201189 
379.30   1.56329803 
379.40   1.56452833 
379.50   1.56570293 
379.60   1.56682195 
379.70   1.56788552 
379.80   1.56889374 
379.90   1.56984672 
380.00   1.57074456 
380.10   1.57158736 
380.20   1.57237520 
380.30   1.49562544 
380.40   1.49867454 
380.50   1.50166266 
380.60   1.50459016 
380.70   1.50745740 
380.80   1.51026472 
380.90   1.51301245 
381.00   1.51570092 
381.10   1.51833044 
381.20   1.52090132 
381.30   1.52341385 
381.40   1.52586833 
381.50   1.52826502 
381.60   1.53060422 
381.70   1.53288616 
381.80   1.53511113 
381.90   1.53727935 
382.00   1.53939107 
382.10   1.54144652 
382.20   1.54344593 
382.30   1.54538951 
382.40   1.54727748 
382.50   1.54911004 
382.60   1.55088738 
382.70   1.55260969 
382.80   1.55427716 
382.90   1.55588997 
383.00   1.55744828 
383.10   1.55895225 
383.20   1.56040205 
383.30   1.56179782 
383.40   1.56313971 
383.50   1.56442786 
383.60   1.56566240 
383.70   1.56684346 
383.80   1.56797115 
383.90   1.56904560 
384.00   1.57006691 
384.10   1.57103518 
384.20   1.57195052 
384.30   1.57281302 
384.40   1.57362276 
384.50   1.57437983 
384.60   1.49776975 
384.70   1.50075373 
384.80   1.50367901 
384.90   1.50654595 
385.00   1.50935487 
385.10   1.51210609 
385.20   1.51479994 
385.30   1.51743671 
385.40   1.52001670 
385.50   1.52254021 
385.60   1.52500751 
385.70   1.52741887 
385.80   1.52977456 
385.90   1.53207484 
386.00   1.53431996 
386.10   1.53651015 
386.20   1.53864565 
386.30   1.54072670 
386.40   1.54275350 
386.50   1.54472627 
386.60   1.54664523 
386.70   1.54851056 
386.80   1.55032247 
386.90   1.55208114 
387.00   1.55378674 
387.10   1.55543947 
387.20   1.55703948 
387.30   1.55858693 
387.40   1.56008199 
387.50   1.56152480 
387.60   1.56291551 
387.70   1.56425426 
387.80   1.56554118 
387.90   1.56677639 
388.00   1.56796003 
388.10   1.56909220 
388.20   1.57017302 
388.30   1.57120260 
388.40   1.57218103 
388.50   1.57310841 
388.60   1.57398483 
388.70   1.57481037 
388.80   1.57558513 
388.90   1.57630916 
389.00   1.49984620 
389.10   1.50277154 
389.20   1.50564014 
389.30   1.50845233 
389.40   1.51120842 
389.50   1.51390871 
389.60   1.51655351 
389.70   1.51914311 
389.80   1.52167778 
389.90   1.52415781 
390.00   1.52658345 
390.10   1.52895497 
390.20   1.53127261 
390.30   1.53353663 
390.40   1.53574726 
390.50   1.53790473 
390.60   1.54000926 
390.70   1.54206107 
390.80   1.54406037 
390.90   1.54600737 
391.00   1.54790225 
391.10   1.54974522 
391.20   1.55153645 
391.30   1.55327614 
391.40   1.55496444 
391.50   1.55660152 
391.60   1.55818756 
391.70   1.55972270 
391.80   1.56120709 
391.90   1.56264088 
392.00   1.56402420 
392.10   1.56535720 
392.20   1.56664000 
392.30   1.56787272 
392.40   1.56905549 
392.50   1.57018840 
392.60   1.57127158 
392.70   1.57230512 
392.80   1.57328913 
392.90   1.57422369 
393.00   1.57510889 
393.10   1.57594482 
393.20   1.57673155 
393.30   1.57746917 
393.40   1.49893476 
393.50   1.50186260 
393.60   1.50473504 
393.70   1.50755241 
393.80   1.51031500 
393.90   1.51302313 
394.00   1.51567707 
394.10   1.51827712 
394.20   1.52082355 
394.30   1.52331664 
394.40   1.52575663 
394.50   1.52814379 
394.60   1.53047837 
394.70   1.53276059 
394.80   1.53499071 
394.90   1.53716894 
395.00   1.53929551 
395.10   1.54137062 
395.20   1.54339449 
395.30   1.54536731 
395.40   1.54728929 
395.50   1.54916061 
395.60   1.55098146 
395.70   1.55275201 
395.80   1.55447243 
395.90   1.55614289 
396.00   1.55776355 
396.10   1.55933458 
396.20   1.56085610 
396.30   1.56232828 
396.40   1.56375125 
396.50   1.56512515 
396.60   1.56645010 
396.70   1.56772622 
396.80   1.56895365 
396.90   1.57013248 
397.00   1.57126284 
397.10   1.57234482 
397.20   1.57337852 
397.30   1.57436405 
397.40   1.57530149 
397.50   1.57619092 
397.60   1.57703243 
397.70   1.57782610 
397.80   1.57857199 
397.90   1.57927018 
398.00   1.50094760 
398.10   1.50382619 
398.20   1.50665080 
398.30   1.50942173 
398.40   1.51213928 
398.50   1.51480372 
398.60   1.51741536 
398.70   1.51997444 
398.80   1.52248124 
398.90   1.52493603 
399.00   1.52733903 
399.10   1.52969052 
399.20   1.53199071 
399.30   1.53423984 
399.40   1.53643813 
399.50   1.53858581 
399.60   1.54068308 
399.70   1.54273015 
399.80   1.54472722 
399.90   1.54667448 
400.00   1.54857212 
400.10   1.55042032 
400.20   1.55221927 
400.30   1.55396912 
400.40   1.55567005 
400.50   1.55732222 
400.60   1.55892578 
400.70   1.56048088 
400.80   1.56198766 
400.90   1.56344627 
401.00   1.56485684 
401.10   1.56621951 
401.20   1.56753438 
401.30   1.56880159 
401.40   1.57002126 
401.50   1.57119348 
401.60   1.57231837 
401.70   1.57339603 
401.80   1.57442656 
401.90   1.57541004 
402.00   1.57634657 
402.10   1.57723623 
402.20   1.57807911 
402.30   1.57887526 
402.40   1.57962477 
402.50   1.58032770 
402.60   1.50002263 
402.70   1.50290972 
402.80   1.50574372 
402.90   1.50852492 
403.00   1.51125361 
403.10   1.51393008 
403.20   1.51655460 
403.30   1.51912745 
403.40   1.52164888 
403.50   1.52411915 
403.60   1.52653851 
403.70   1.52890720 
403.80   1.53122546 
403.90   1.53349351 
404.00   1.53571158 
404.10   1.53787987 
404.20   1.53999862 
404.30   1.54206801 
404.40   1.54408824 
404.50   1.54605951 
404.60   1.54798201 
404.70   1.54985592 
404.80   1.55168141 
404.90   1.55345865 
405.00   1.55518781 
405.10   1.55686905 
405.20   1.55850253 
405.30   1.56008839 
405.40   1.56162678 
405.50   1.56311784 
405.60   1.56456170 
405.70   1.56595850 
405.80   1.56730836 
405.90   1.56861140 
406.00   1.56986774 
406.10   1.57107750 
406.20   1.57224077 
406.30   1.57335766 
406.40   1.57442828 
406.50   1.57545271 
406.60   1.57643104 
406.70   1.57736337 
406.80   1.57824976 
406.90   1.57909031 
407.00   1.57988508 
407.10   1.58063414 
407.20   1.58133756 
407.30   1.49908452 
407.40   1.50198245 
407.50   1.50482798 
407.60   1.50762142 
407.70   1.51036304 
407.80   1.51305314 
407.90   1.51569198 
408.00   1.51827983 
408.10   1.52081696 
408.20   1.52330361 
408.30   1.52574004 
408.40   1.52812648 
408.50   1.53046317 
408.60   1.53275033 
408.70   1.53498819 
408.80   1.53717696 
408.90   1.53931685 
409.00   1.54140807 
409.10   1.54345081 
409.20   1.54544526 
409.30   1.54739162 
409.40   1.54929005 
409.50   1.55114075 
409.60   1.55294388 
409.70   1.55469960 
409.80   1.55640807 
409.90   1.55806946 
410.00   1.55968391 
410.10   1.56125156 
410.20   1.56277257 
410.30   1.56424705 
410.40   1.56567515 
410.50   1.56705700 
410.60   1.56839271 
410.70   1.56968240 
410.80   1.57092618 
410.90   1.57212417 
411.00   1.57327647 
411.10   1.57438318 
411.20   1.57544439 
411.30   1.57646020 
411.40   1.57743069 
411.50   1.57835596 
411.60   1.57923607 
411.70   1.58007110 
411.80   1.58086113 
411.90   1.58160623 
412.00   1.58230644 
412.10   1.58296185 
412.20   1.50104193 
412.30   1.50390110 
412.40   1.50670870 
412.50   1.50946504 
412.60   1.51217038 
412.70   1.51482500 
412.80   1.51742918 
412.90   1.51998316 
413.00   1.52248720 
413.10   1.52494155 
413.20   1.52734644 
413.30   1.52970211 
413.40   1.53200879 
413.50   1.53426670 
413.60   1.53647605 
413.70   1.53863705 
413.80   1.54074990 
413.90   1.54281481 
414.00   1.54483196 
414.10   1.54680154 
414.20   1.54872374 
414.30   1.55059873 
414.40   1.55242667 
414.50   1.55420775 
414.60   1.55594211 
414.70   1.55762991 
414.80   1.55927131 
414.90   1.56086645 
415.00   1.56241547 
415.10   1.56391852 
415.20   1.56537571 
415.30   1.56678719 
415.40   1.56815306 
415.50   1.56947346 
415.60   1.57074850 
415.70   1.57197829 
415.80   1.57316293 
415.90   1.57430252 
416.00   1.57539717 
416.10   1.57644697 
416.20   1.57745200 
416.30   1.57841236 
416.40   1.57932812 
416.50   1.58019936 
416.60   1.58102615 
416.70   1.58180857 
416.80   1.58254668 
416.90   1.58324054 
417.00   1.58389022 
417.10   1.58449575 
417.20   1.50010379 
417.30   1.50297758 
417.40   1.50580025 
417.50   1.50857208 
417.60   1.51129335 
417.70   1.51396433 
417.80   1.51658528 
417.90   1.51915647 
418.00   1.52167815 
418.10   1.52415056 
418.20   1.52657395 
418.30   1.52894854 
418.40   1.53127457 
418.50   1.53355225 
418.60   1.53578180 
418.70   1.53796343 
418.80   1.54009734 
418.90   1.54218373 
419.00   1.54422280 
419.10   1.54621472 
419.20   1.54815969 
419.30   1.55005788 
419.40   1.55190946 
419.50   1.55371459 
419.60   1.55547345 
419.70   1.55718618 
419.80   1.55885294 
419.90   1.56047387 
420.00   1.56204912 
420.10   1.56357883 
420.20   1.56506313 
420.30   1.56650214 
420.40   1.56789600 
420.50   1.56924482 
420.60   1.57054873 
420.70   1.57180782 
420.80   1.57302221 
420.90   1.57419201 
421.00   1.57531731 
421.10   1.57639820 
421.20   1.57743479 
421.30   1.57842715 
421.40   1.57937536 
421.50   1.58027952 
421.60   1.58113969 
421.70   1.58195595 
421.80   1.58272836 
421.90   1.58345699 
422.00   1.58414190 
422.10   1.58478314 
422.20   1.58538077 
422.30   1.49915104 
422.40   1.50204130 
422.50   1.50488075 
422.60   1.50766967 
422.70   1.51040835 
422.80   1.51309706 
422.90   1.51573606 
423.00   1.51832561 
423.10   1.52086596 
423.20   1.52335737 
423.30   1.52580007 
423.40   1.52819430 
423.50   1.53054027 
423.60   1.53283822 
423.70   1.53508836 
423.80   1.53729090 
423.90   1.53944605 
424.00   1.54155399 
424.10   1.54361493 
424.20   1.54562906 
424.30   1.54759655 
424.40   1.54951759 
424.50   1.55139234 
424.60   1.55322098 
424.70   1.55500366 
424.80   1.55674055 
424.90   1.55843180 
425.00   1.56007756 
425.10   1.56167796 
425.20   1.56323315 
425.30   1.56474327 
425.40   1.56620845 
425.50   1.56762880 
425.60   1.56900446 
425.70   1.57033554 
425.80   1.57162215 
425.90   1.57286440 
426.00   1.57406240 
426.10   1.57521625 
426.20   1.57632605 
426.30   1.57739188 
426.40   1.57841384 
426.50   1.57939201 
426.60   1.58032648 
426.70   1.58121732 
426.80   1.58206460 
426.90   1.58286840 
427.00   1.58362878 
427.10   1.58434581 
427.20   1.58501953 
427.30   1.58565002 
427.40   1.58623731 
427.50   1.58678146 
427.60   1.50109203 
427.70   1.50394980 
427.80   1.50675727 
427.90   1.50951472 
428.00   1.51222241 
428.10   1.51488062 
428.20   1.51748961 
428.30   1.52004963 
428.40   1.52256093 
428.50   1.52502375 
428.60   1.52743831 
428.70   1.52980486 
428.80   1.53212362 
428.90   1.53439479 
429.00   1.53661860 
429.10   1.53879524 
429.20   1.54092492 
429.30   1.54300784 
429.40   1.54504417 
429.50   1.54703410 
429.60   1.54897782 
429.70   1.55087550 
429.80   1.55272730 
429.90   1.55453339 
430.00   1.55629394 
430.10   1.55800908 
430.20   1.55967898 
430.30   1.56130377 
430.40   1.56288361 
430.50   1.56441861 
430.60   1.56590893 
430.70   1.56735468 
430.80   1.56875599 
430.90   1.57011297 
431.00   1.57142575 
431.10   1.57269443 
431.20   1.57391912 
431.30   1.57509991 
431.40   1.57623692 
431.50   1.57733023 
431.60   1.57837994 
431.70   1.57938613 
431.80   1.58034889 
431.90   1.58126829 
432.00   1.58214441 
432.10   1.58297733 
432.20   1.58376710 
432.30   1.58451380 
432.40   1.58521749 
432.50   1.58587822 
432.60   1.58649604 
432.70   1.58707102 
432.80   1.58760318 
432.90   1.58809259 
433.00   1.50300778 
433.10   1.50583505 
433.20   1.50861245 
433.30   1.51134024 
433.40   1.51401870 
433.50   1.51664809 
433.60   1.51922866 
433.70   1.52176066 
433.80   1.52424433 
433.90   1.52667991 
434.00   1.52906763 
434.10   1.53140772 
434.20   1.53370038 
434.30   1.53594583 
434.40   1.53814428 
434.50   1.54029594 
434.60   1.54240099 
434.70   1.54445962 
434.80   1.54647203 
434.90   1.54843840 
435.00   1.55035888 
435.10   1.55223367 
435.20   1.55406292 
435.30   1.55584680 
435.40   1.55758545 
435.50   1.55927904 
435.60   1.56092770 
435.70   1.56253158 
435.80   1.56409082 
435.90   1.56560556 
436.00   1.56707591 
436.10   1.56850201 
436.20   1.56988397 
436.30   1.57122191 
436.40   1.57251595 
436.50   1.57376620 
436.60   1.57497275 
436.70   1.57613570 
436.80   1.57725516 
436.90   1.57833122 
437.00   1.57936396 
437.10   1.58035347 
437.20   1.58129984 
437.30   1.58220313 
437.40   1.58306342 
437.50   1.58388079 
437.60   1.58465530 
437.70   1.58538700 
437.80   1.58607597 
437.90   1.58672226 
438.00   1.58732591 
438.10   1.58788698 
438.20   1.58840551 
438.30   1.58888155 
438.40   1.58931513 
438.50   1.50207336 
438.60   1.50492054 
438.70   1.50771796 
438.80   1.51046588 
438.90   1.51316459 
439.00   1.51581434 
439.10   1.51841539 
439.20   1.52096798 
439.30   1.52347237 
439.40   1.52592879 
439.50   1.52833747 
439.60   1.53069864 
439.70   1.53301251 
439.80   1.53527930 
439.90   1.53749922 
440.00   1.53967247 
440.10   1.54179925 
440.20   1.54387974 
440.30   1.54591415 
440.40   1.54790264 
440.50   1.54984540 
440.60   1.55174260 
440.70   1.55359440 
440.80   1.55540096 
440.90   1.55716245 
441.00   1.55887902 
441.10   1.56055081 
441.20   1.56217797 
441.30   1.56376063 
441.40   1.56529894 
441.50   1.56679303 
441.60   1.56824301 
441.70   1.56964901 
441.80   1.57101116 
441.90   1.57232956 
442.00   1.57360432 
442.10   1.57483555 
442.20   1.57602336 
442.30   1.57716783 
442.40   1.57826907 
442.50   1.57932716 
442.60   1.58034220 
442.70   1.58131426 
442.80   1.58224342 
442.90   1.58312977 
443.00   1.58397336 
443.10   1.58477427 
443.20   1.58553257 
443.30   1.58624831 
443.40   1.58692156 
443.50   1.58755236 
443.60   1.58814076 
443.70   1.58868683 
443.80   1.58919059 
443.90   1.58965209 
444.00   1.59007136 
444.10   1.50113190 
444.20   1.50399980 
444.30   1.50681800 
444.40   1.50958677 
444.50   1.51230640 
444.60   1.51497713 
444.70   1.51759924 
444.80   1.52017297 
444.90   1.52269858 
445.00   1.52517629 
445.10   1.52760634 
445.20   1.52998895 
445.30   1.53232436 
445.40   1.53461277 
445.50   1.53685440 
445.60   1.53904945 
445.70   1.54119811 
445.80   1.54330059 
445.90   1.54535706 
446.00   1.54736772 
446.10   1.54933275 
446.20   1.55125230 
446.30   1.55312657 
446.40   1.55495570 
446.50   1.55673985 
446.60   1.55847919 
446.70   1.56017386 
446.80   1.56182401 
446.90   1.56342977 
447.00   1.56499129 
447.10   1.56650870 
447.20   1.56798212 
447.30   1.56941168 
447.40   1.57079750 
447.50   1.57213969 
447.60   1.57343837 
447.70   1.57469364 
447.80   1.57590561 
447.90   1.57707437 
448.00   1.57820003 
448.10   1.57928268 
448.20   1.58032239 
448.30   1.58131927 
448.40   1.58227338 
448.50   1.58318481 
448.60   1.58405364 
448.70   1.58487992 
448.80   1.58566373 
448.90   1.58640512 
449.00   1.58710417 
449.10   1.58776092 
449.20   1.58837543 
449.30   1.58894775 
449.40   1.58947792 
449.50   1.58996598 
449.60   1.59041198 
449.70   1.59081594 
449.80   1.59117791 
449.90   1.50020460 
450.00   1.50309281 
450.10   1.50593138 
450.20   1.50872059 
450.30   1.51146071 
450.40   1.51415200 
450.50   1.51679474 
450.60   1.51938916 
450.70   1.52193552 
450.80   1.52443406 
450.90   1.52688502 
451.00   1.52928861 
451.10   1.53164507 
451.20   1.53395462 
451.30   1.53621745 
451.40   1.53843379 
451.50   1.54060383 
451.60   1.54272776 
451.70   1.54480578 
451.80   1.54683807 
451.90   1.54882481 
452.00   1.55076618 
452.10   1.55266235 
452.20   1.55451348 
452.30   1.55631973 
452.40   1.55808125 
452.50   1.55979821 
452.60   1.56147075 
452.70   1.56309900 
452.80   1.56468312 
452.90   1.56622322 
453.00   1.56771945 
453.10   1.56917193 
453.20   1.57058077 
453.30   1.57194610 
453.40   1.57326803 
453.50   1.57454667 
453.60   1.57578212 
453.70   1.57697448 
453.80   1.57812386 
453.90   1.57923035 
454.00   1.58029403 
454.10   1.58131500 
454.20   1.58229333 
454.30   1.58322911 
454.40   1.58412241 
454.50   1.58497330 
454.60   1.58578185 
454.70   1.58654813 
454.80   1.58727220 
454.90   1.58795410 
455.00   1.58859391 
455.10   1.58919167 
455.20   1.58974742 
455.30   1.59026122 
455.40   1.59073309 
455.50   1.59116309 
455.60   1.59155123 
455.70   1.59189757 
455.80   1.59220211 
455.90   1.50218583 
456.00   1.50504503 
456.10   1.50785492 
456.20   1.51061576 
456.30   1.51332782 
456.40   1.51599137 
456.50   1.51860665 
456.60   1.52117392 
456.70   1.52369343 
456.80   1.52616540 
456.90   1.52859007 
457.00   1.53096766 
457.10   1.53329839 
457.20   1.53558248 
457.30   1.53782013 
457.40   1.54001155 
457.50   1.54215693 
457.60   1.54425646 
457.70   1.54631034 
457.80   1.54831873 
457.90   1.55028183 
458.00   1.55219980 
458.10   1.55407280 
458.20   1.55590101 
458.30   1.55768458 
458.40   1.55942366 
458.50   1.56111840 
458.60   1.56276894 
458.70   1.56437543 
458.80   1.56593800 
458.90   1.56745678 
459.00   1.56893189 
459.10   1.57036347 
459.20   1.57175163 
459.30   1.57309649 
459.40   1.57439815 
459.50   1.57565673 
459.60   1.57687232 
459.70   1.57804503 
459.80   1.57917496 
459.90   1.58026218 
460.00   1.58130680 
460.10   1.58230889 
460.20   1.58326854 
460.30   1.58418582 
460.40   1.58506081 
460.50   1.58589358 
460.60   1.58668419 
460.70   1.58743271 
460.80   1.58813920 
460.90   1.58880370 
461.00   1.58942629 
461.10   1.59000699 
461.20   1.59054587 
461.30   1.59104296 
461.40   1.59149830 
461.50   1.59191193 
461.60   1.59228388 
461.70   1.59261418 
461.80   1.59290285 
461.90   1.59314993 
462.00   1.50130109 
462.10   1.50418000 
462.20   1.50700965 
462.30   1.50979031 
462.40   1.51252226 
462.50   1.51520574 
462.60   1.51784103 
462.70   1.52042838 
462.80   1.52296801 
462.90   1.52546019 
463.00   1.52790513 
463.10   1.53030307 
463.20   1.53265422 
463.30   1.53495880 
463.40   1.53721702 
463.50   1.53942908 
463.60   1.54159519 
463.70   1.54371553 
463.80   1.54579029 
463.90   1.54781966 
464.00   1.54980382 
464.10   1.55174293 
464.20   1.55363717 
464.30   1.55548670 
464.40   1.55729169 
464.50   1.55905228 
464.60   1.56076862 
464.70   1.56244086 
464.80   1.56406915 
464.90   1.56565362 
465.00   1.56719440 
465.10   1.56869162 
465.20   1.57014541 
465.30   1.57155589 
465.40   1.57292317 
465.50   1.57424736 
465.60   1.57552858 
465.70   1.57676693 
465.80   1.57796250 
465.90   1.57911541 
466.00   1.58022573 
466.10   1.58129357 
466.20   1.58231900 
466.30   1.58330211 
466.40   1.58424298 
466.50   1.58514168 
466.60   1.58599829 
466.70   1.58681287 
466.80   1.58758548 
466.90   1.58831619 
467.00   1.58900506 
467.10   1.58965215 
467.20   1.59025749 
467.30   1.59082114 
467.40   1.59134315 
467.50   1.59182355 
467.60   1.59226238 
467.70   1.59265968 
467.80   1.59301548 
467.90   1.59332980 
468.00   1.59360267 
468.10   1.59383411 
468.20   1.59402415 
468.30   1.50044414 
468.40   1.50334156 
468.50   1.50618980 
468.60   1.50898913 
468.70   1.51173983 
468.80   1.51444216 
468.90   1.51709637 
469.00   1.51970273 
469.10   1.52226147 
469.20   1.52477284 
469.30   1.52723706 
469.40   1.52965438 
469.50   1.53202500 
469.60   1.53434916 
469.70   1.53662704 
469.80   1.53885887 
469.90   1.54104485 
470.00   1.54318516 
470.10   1.54527999 
470.20   1.54732954 
470.30   1.54933398 
470.40   1.55129349 
470.50   1.55320823 
470.60   1.55507837 
470.70   1.55690408 
470.80   1.55868550 
470.90   1.56042280 
471.00   1.56211611 
471.10   1.56376559 
471.20   1.56537136 
471.30   1.56693356 
471.40   1.56845233 
471.50   1.56992779 
471.60   1.57136006 
471.70   1.57274926 
471.80   1.57409550 
471.90   1.57539890 
472.00   1.57665956 
472.10   1.57787758 
472.20   1.57905306 
472.30   1.58018609 
472.40   1.58127678 
472.50   1.58232520 
472.60   1.58333143 
472.70   1.58429557 
472.80   1.58521768 
472.90   1.58609784 
473.00   1.58693612 
473.10   1.58773259 
473.20   1.58848730 
473.30   1.58920033 
473.40   1.58987171 
473.50   1.59050151 
473.60   1.59108978 
473.70   1.59163656 
473.80   1.59214190 
473.90   1.59260583 
474.00   1.59302839 
474.10   1.59340961 
474.20   1.59374953 
474.30   1.59404816 
474.40   1.59430554 
474.50   1.59452168 
474.60   1.59469660 
474.70   1.59483031 
474.80   1.49962091 
474.90   1.50253538 
475.00   1.50540078 
475.10   1.50821738 
475.20   1.51098547 
475.30   1.51370530 
475.40   1.51637714 
475.50   1.51900123 
475.60   1.52157783 
475.70   1.52410718 
475.80   1.52658951 
475.90   1.52902505 
476.00   1.53141403 
476.10   1.53375666 
476.20   1.53605315 
476.30   1.53830371 
476.40   1.54050854 
476.50   1.54266784 
476.60   1.54478180 
476.70   1.54685060 
476.80   1.54887443 
476.90   1.55085345 
477.00   1.55278786 
477.10   1.55467780 
477.20   1.55652344 
477.30   1.55832494 
477.40   1.56008245 
477.50   1.56179613 
477.60   1.56346610 
477.70   1.56509252 
477.80   1.56667552 
477.90   1.56821524 
478.00   1.56971179 
478.10   1.57116530 
478.20   1.57257589 
478.30   1.57394368 
478.40   1.57526878 
478.50   1.57655130 
478.60   1.57779133 
478.70   1.57898898 
478.80   1.58014435 
478.90   1.58125753 
479.00   1.58232861 
479.10   1.58335767 
479.20   1.58434479 
479.30   1.58529006 
479.40   1.58619355 
479.50   1.58705533 
479.60   1.58787546 
479.70   1.58865402 
479.80   1.58939106 
479.90   1.59008664 
480.00   1.59074081 
480.10   1.59135363 
480.20   1.59192515 
480.30   1.59245540 
480.40   1.59294444 
480.50   1.59339229 
480.60   1.59379899 
480.70   1.59416458 
480.80   1.59448908 
480.90   1.59477252 
481.00   1.59501492 
481.10   1.59521630 
481.20   1.59537666 
481.30   1.59549604 
481.40   1.49881755 
481.50   1.50174828 
481.60   1.50463007 
481.70   1.50746320 
481.80   1.51024793 
481.90   1.51298455 
482.00   1.51567331 
482.10   1.51831446 
482.20   1.52090825 
482.30   1.52345493 
482.40   1.52595473 
482.50   1.52840787 
482.60   1.53081459 
482.70   1.53317510 
482.80   1.53548962 
482.90   1.53775835 
483.00   1.53998150 
483.10   1.54215926 
483.20   1.54429183 
483.30   1.54637938 
483.40   1.54842211 
483.50   1.55042019 
483.60   1.55237380 
483.70   1.55428310 
483.80   1.55614825 
483.90   1.55796941 
484.00   1.55974674 
484.10   1.56148039 
484.20   1.56317050 
484.30   1.56481721 
484.40   1.56642066 
484.50   1.56798098 
484.60   1.56949831 
484.70   1.57097276 
484.80   1.57240446 
484.90   1.57379352 
485.00   1.57514005 
485.10   1.57644417 
485.20   1.57770599 
485.30   1.57892559 
485.40   1.58010308 
485.50   1.58123855 
485.60   1.58233210 
485.70   1.58338381 
485.80   1.58439377 
485.90   1.58536204 
486.00   1.58628872 
486.10   1.58717387 
486.20   1.58801756 
486.30   1.58881986 
486.40   1.58958084 
486.50   1.59030054 
486.60   1.59097903 
486.70   1.59161635 
486.80   1.59221257 
486.90   1.59276772 
487.00   1.59328185 
487.10   1.59375500 
487.20   1.59418719 
487.30   1.59457848 
487.40   1.59492889 
487.50   1.59523843 
487.60   1.59550715 
487.70   1.59573505 
487.80   1.59592216 
487.90   1.59606850 
488.00   1.59617406 
488.10   1.59623886 
488.20   1.49805987 
488.30   1.50100489 
488.40   1.50390115 
488.50   1.50674892 
488.60   1.50954848 
488.70   1.51230010 
488.80   1.51500403 
488.90   1.51766054 
489.00   1.52026986 
489.10   1.52283225 
489.20   1.52534794 
489.30   1.52781716 
489.40   1.53024014 
489.50   1.53261709 
489.60   1.53494823 
489.70   1.53723377 
489.80   1.53947391 
489.90   1.54166885 
490.00   1.54381877 
490.10   1.54592388 
490.20   1.54798435 
490.30   1.55000036 
490.40   1.55197208 
490.50   1.55389968 
490.60   1.55578333 
490.70   1.55762318 
490.80   1.55941939 
490.90   1.56117212 
491.00   1.56288150 
491.10   1.56454768 
491.20   1.56617079 
491.30   1.56775098 
491.40   1.56928837 
491.50   1.57078308 
491.60   1.57223524 
491.70   1.57364497 
491.80   1.57501238 
491.90   1.57633757 
492.00   1.57762067 
492.10   1.57886176 
492.20   1.58006095 
492.30   1.58121833 
492.40   1.58233399 
492.50   1.58340803 
492.60   1.58444053 
492.70   1.58543156 
492.80   1.58638122 
492.90   1.58728956 
493.00   1.58815666 
493.10   1.58898259 
493.20   1.58976742 
493.30   1.59051120 
493.40   1.59121399 
493.50   1.59187585 
493.60   1.59249682 
493.70   1.59307696 
493.80   1.59361631 
493.90   1.59411491 
494.00   1.59457280 
494.10   1.59499001 
494.20   1.59536658 
494.30   1.59570253 
494.40   1.59599790 
494.50   1.59625270 
494.60   1.59646694 
494.70   1.59664066 
494.80   1.59677386 
494.90   1.59686655 
495.00   1.59691874 
495.10   1.59693044 
495.20   1.49735465 
495.30   1.50031176 
495.40   1.50322033 
495.50   1.50608064 
495.60   1.50889297 
495.70   1.51165758 
495.80   1.51437474 
495.90   1.51704469 
496.00   1.51966769 
496.10   1.52224398 
496.20   1.52477380 
496.30   1.52725738 
496.40   1.52969494 
496.50   1.53208671 
496.60   1.53443289 
496.70   1.53673370 
496.80   1.53898934 
496.90   1.54120001 
497.00   1.54336590 
497.10   1.54548720 
497.20   1.54756409 
497.30   1.54959675 
497.40   1.55158536 
497.50   1.55353008 
497.60   1.55543108 
497.70   1.55728852 
497.80   1.55910256 
497.90   1.56087334 
498.00   1.56260102 
498.10   1.56428573 
498.20   1.56592762 
498.30   1.56752681 
498.40   1.56908345 
498.50   1.57059765 
498.60   1.57206954 
498.70   1.57349924 
498.80   1.57488686 
498.90   1.57623252 
499.00   1.57753632 
499.10   1.57879836 
499.20   1.58001875 
499.30   1.58119758 
499.40   1.58233494 
499.50   1.58343093 
499.60   1.58448562 
499.70   1.58549911 
499.80   1.58647147 
499.90   1.58740278 
500.00   1.58829310 
500.10   1.58914251 
500.20   1.58995108 
500.30   1.59071886 
500.40   1.59144591 
500.50   1.59213230 
500.60   1.59277807 
500.70   1.59338327 
500.80   1.59394795 
500.90   1.59447215 
501.00   1.59495591 
501.10   1.59539927 
501.20   1.59580226 
501.30   1.59616492 
501.40   1.59648726 
501.50   1.59676932 
501.60   1.59701112 
501.70   1.59721266 
501.80   1.59737398 
501.90   1.59749508 
502.00   1.59757597 
502.10   1.59761666 
502.20   1.59761715 
502.30   1.59757743 
502.40   1.59749751 
502.50   1.49673005 
502.60   1.49969590 
502.70   1.50261351 
502.80   1.50548317 
502.90   1.50830514 
503.00   1.51107969 
503.10   1.51380709 
503.20   1.51648759 
503.30   1.51912143 
503.40   1.52170886 
503.50   1.52425012 
503.60   1.52674543 
503.70   1.52919503 
503.80   1.53159912 
503.90   1.53395793 
504.00   1.53627166 
504.10   1.53854051 
504.20   1.54076470 
504.30   1.54294439 
504.40   1.54507980 
504.50   1.54717109 
504.60   1.54921845 
504.70   1.55122205 
504.80   1.55318206 
504.90   1.55509865 
505.00   1.55697198 
505.10   1.55880219 
505.20   1.56058946 
505.30   1.56233391 
505.40   1.56403569 
505.50   1.56569495 
505.60   1.56731182 
505.70   1.56888643 
505.80   1.57041891 
505.90   1.57190937 
506.00   1.57335795 
506.10   1.57476475 
506.20   1.57612988 
506.30   1.57745346 
506.40   1.57873560 
506.50   1.57997638 
506.60   1.58117591 
506.70   1.58233428 
506.80   1.58345158 
506.90   1.58452791 
507.00   1.58556333 
507.10   1.58655794 
507.20   1.58751180 
507.30   1.58842500 
507.40   1.58929760 
507.50   1.59012967 
507.60   1.59092128 
507.70   1.59167247 
507.80   1.59238332 
507.90   1.59305387 
508.00   1.59368418 
508.10   1.59427429 
508.20   1.59482425 
508.30   1.59533410 
508.40   1.59580388 
508.50   1.59623362 
508.60   1.59662335 
508.70   1.59697311 
508.80   1.59728292 
508.90   1.59755281 
509.00   1.59778279 
509.10   1.59797288 
509.20   1.59812309 
509.30   1.59823345 
509.40   1.59830395 
509.50   1.59833460 
509.60   1.59832540 
509.70   1.59827636 
509.80   1.59818747 
509.90   1.49615074 
510.00   1.49912364 
510.10   1.50204864 
510.20   1.50492602 
510.30   1.50775605 
510.40   1.51053900 
510.50   1.51327513 
510.60   1.51596469 
510.70   1.51860793 
510.80   1.52120509 
510.90   1.52375641 
511.00   1.52626211 
511.10   1.52872243 
511.20   1.53113757 
511.30   1.53350776 
511.40   1.53583319 
511.50   1.53811409 
511.60   1.54035063 
511.70   1.54254302 
511.80   1.54469144 
511.90   1.54679607 
512.00   1.54885710 
512.10   1.55087470 
512.20   1.55284904 
512.30   1.55478028 
512.40   1.55666858 
512.50   1.55851410 
512.60   1.56031699 
512.70   1.56207740 
512.80   1.56379547 
512.90   1.56547134 
513.00   1.56710515 
513.10   1.56869703 
513.20   1.57024710 
513.30   1.57175549 
513.40   1.57322232 
513.50   1.57464770 
513.60   1.57603175 
513.70   1.57737458 
513.80   1.57867629 
513.90   1.57993699 
514.00   1.58115676 
514.10   1.58233571 
514.20   1.58347393 
514.30   1.58457150 
514.40   1.58562852 
514.50   1.58664505 
514.60   1.58762118 
514.70   1.58855698 
514.80   1.58945253 
514.90   1.59030789 
515.00   1.59112313 
515.10   1.59189830 
515.20   1.59263347 
515.30   1.59332869 
515.40   1.59398402 
515.50   1.59459950 
515.60   1.59517518 
515.70   1.59571111 
515.80   1.59620731 
515.90   1.59666384 
516.00   1.59708072 
516.10   1.59745799 
516.20   1.59779567 
516.30   1.59809378 
516.40   1.59835236 
516.50   1.59857142 
516.60   1.59875097 
516.70   1.59889103 
516.80   1.59899161 
516.90   1.59905272 
517.00   1.59907436 
517.10   1.59905653 
517.20   1.59899923 
517.30   1.59890246 
517.40   1.59876621 
517.50   1.59859047 
517.60   1.49566638 
517.70   1.49864261 
517.80   1.50157137 
517.90   1.50445292 
518.00   1.50728753 
518.10   1.51007548 
518.20   1.51281702 
518.30   1.51551240 
518.40   1.51816187 
518.50   1.52076566 
518.60   1.52332402 
518.70   1.52583716 
518.80   1.52830532 
518.90   1.53072871 
519.00   1.53310755 
519.10   1.53544203 
519.20   1.53773237 
519.30   1.53997875 
519.40   1.54218138 
519.50   1.54434043 
519.60   1.54645610 
519.70   1.54852856 
519.80   1.55055797 
519.90   1.55254452 
520.00   1.55448836 
520.10   1.55638966 
520.20   1.55824857 
520.30   1.56006524 
520.40   1.56183982 
520.50   1.56357246 
520.60   1.56526328 
520.70   1.56691244 
520.80   1.56852005 
520.90   1.57008625 
521.00   1.57161116 
521.10   1.57309491 
521.20   1.57453760 
521.30   1.57593934 
521.40   1.57730026 
521.50   1.57862046 
521.60   1.57990002 
521.70   1.58113907 
521.80   1.58233768 
521.90   1.58349596 
522.00   1.58461399 
522.10   1.58569186 
522.20   1.58672964 
522.30   1.58772742 
522.40   1.58868527 
522.50   1.58960326 
522.60   1.59048147 
522.70   1.59131995 
522.80   1.59211878 
522.90   1.59287801 
523.00   1.59359770 
523.10   1.59427789 
523.20   1.59491865 
523.30   1.59552002 
523.40   1.59608205 
523.50   1.59660476 
523.60   1.59708822 
523.70   1.59753244 
523.80   1.59793746 
523.90   1.59830332 
524.00   1.59863004 
524.10   1.59891764 
524.20   1.59916614 
524.30   1.59937557 
524.40   1.59954593 
524.50   1.59967725 
524.60   1.59976952 
524.70   1.59982276 
524.80   1.59983697 
524.90   1.59981216 
525.00   1.59974831 
525.10   1.59964543 
525.20   1.59950350 
525.30   1.59932252 
525.40   1.59910248 
525.50   1.49526233 
525.60   1.49823896 
525.70   1.50116858 
525.80   1.50405148 
525.90   1.50688792 
526.00   1.50967816 
526.10   1.51242246 
526.20   1.51512107 
526.30   1.51777423 
526.40   1.52038219 
526.50   1.52294516 
526.60   1.52546339 
526.70   1.52793708 
526.80   1.53036646 
526.90   1.53275174 
527.00   1.53509312 
527.10   1.53739081 
527.20   1.53964499 
527.30   1.54185586 
527.40   1.54402361 
527.50   1.54614842 
527.60   1.54823046 
527.70   1.55026990 
527.80   1.55226692 
527.90   1.55422168 
528.00   1.55613434 
528.10   1.55800505 
528.20   1.55983396 
528.30   1.56162122 
528.40   1.56336697 
528.50   1.56507135 
528.60   1.56673450 
528.70   1.56835655 
528.80   1.56993763 
528.90   1.57147785 
529.00   1.57297734 
529.10   1.57443622 
529.20   1.57585459 
529.30   1.57723257 
529.40   1.57857027 
529.50   1.57986778 
529.60   1.58112520 
529.70   1.58234264 
529.80   1.58352017 
529.90   1.58465790 
530.00   1.58575590 
530.10   1.58681427 
530.20   1.58783307 
530.30   1.58881239 
530.40   1.58975229 
530.50   1.59065285 
530.60   1.59151414 
530.70   1.59233621 
530.80   1.59311913 
530.90   1.59386296 
531.00   1.59456775 
531.10   1.59523355 
531.20   1.59586042 
531.30   1.59644839 
531.40   1.59699751 
531.50   1.59750782 
531.60   1.59797936 
531.70   1.59841216 
531.80   1.59880626 
531.90   1.59916168 
532.00   1.59947844 
532.10   1.59975658 
532.20   1.59999610 
532.30   1.60019704 
532.40   1.60035940 
532.50   1.60048319 
532.60   1.60056842 
532.70   1.60061511 
532.80   1.60062325 
532.90   1.60059284 
533.00   1.60052388 
533.10   1.60041637 
533.20   1.60027030 
533.30   1.60008566 
533.40   1.59986243 
533.50   1.59960060 
533.60   1.47825220 
533.70   1.48063304 
533.80   1.48298451 
533.90   1.48530675 
534.00   1.48759989 
534.10   1.48986406 
534.20   1.49209941 
534.30   1.49430605 
534.40   1.49648412 
534.50   1.49863374 
534.60   1.50075503 
534.70   1.50284812 
534.80   1.50491312 
534.90   1.50695014 
535.00   1.50895930 
535.10   1.51094071 
535.20   1.51289448 
535.30   1.51482072 
535.40   1.51671953 
535.50   1.51859101 
535.60   1.52043527 
535.70   1.52225240 
535.80   1.52404250 
535.90   1.52580567 
536.00   1.52754200 
536.10   1.52925157 
536.20   1.53093449 
536.30   1.53259084 
536.40   1.53422070 
536.50   1.53582416 
536.60   1.53740130 
536.70   1.53895220 
536.80   1.54047695 
536.90   1.54197561 
537.00   1.54344827 
537.10   1.54489500 
537.20   1.54631587 
537.30   1.54771095 
537.40   1.54908031 
537.50   1.55042403 
537.60   1.55174217 
537.70   1.55303478 
537.80   1.55430195 
537.90   1.55554372 
538.00   1.55676016 
538.10   1.55795133 
538.20   1.55911729 
538.30   1.56025809 
538.40   1.56137379 
538.50   1.56246444 
538.60   1.56353010 
538.70   1.56457081 
538.80   1.56558663 
538.90   1.56657760 
539.00   1.56754377 
539.10   1.56848519 
539.20   1.56940190 
539.30   1.57029394 
539.40   1.57116136 
539.50   1.57200420 
539.60   1.57282250 
539.70   1.57361629 
539.80   1.57438561 
539.90   1.57513050 
540.00   1.57585100 
540.10   1.57654713 
540.20   1.57721893 
540.30   1.57786643 
540.40   1.57848965 
540.50   1.57908864 
540.60   1.57966341 
540.70   1.58021399 
540.80   1.58074042 
540.90   1.58124270 
541.00   1.58172087 
541.10   1.58217494 
541.20   1.58260494 
541.30   1.58301089 
541.40   1.58339280 
541.50   1.58375070 
541.60   1.58408459 
541.70   1.58439450 
541.80   1.58468044 
541.90   1.58494242 
542.00   1.47819850 
542.10   1.48052843 
542.20   1.48283040 
542.30   1.48510456 
542.40   1.48735101 
542.50   1.48956989 
542.60   1.49176132 
542.70   1.49392542 
542.80   1.49606231 
542.90   1.49817211 
543.00   1.50025493 
543.10   1.50231089 
543.20   1.50434008 
543.30   1.50634263 
543.40   1.50831863 
543.50   1.51026820 
543.60   1.51219143 
543.70   1.51408843 
543.80   1.51595928 
543.90   1.51780410 
544.00   1.51962297 
544.10   1.52141599 
544.20   1.52318325 
544.30   1.52492483 
544.40   1.52664083 
544.50   1.52833134 
544.60   1.52999643 
544.70   1.53163619 
544.80   1.53325070 
544.90   1.53484004 
545.00   1.53640429 
545.10   1.53794352 
545.20   1.53945782 
545.30   1.54094724 
545.40   1.54241188 
545.50   1.54385179 
545.60   1.54526705 
545.70   1.54665772 
545.80   1.54802386 
545.90   1.54936556 
546.00   1.55068286 
546.10   1.55197583 
546.20   1.55324453 
546.30   1.55448902 
546.40   1.55570936 
546.50   1.55690561 
546.60   1.55807781 
546.70   1.55922603 
546.80   1.56035032 
546.90   1.56145073 
547.00   1.56252730 
547.10   1.56358010 
547.20   1.56460916 
547.30   1.56561454 
547.40   1.56659627 
547.50   1.56755441 
547.60   1.56848900 
547.70   1.56940007 
547.80   1.57028768 
547.90   1.57115185 
548.00   1.57199264 
548.10   1.57281007 
548.20   1.57360418 
548.30   1.57437501 
548.40   1.57512259 
548.50   1.57584696 
548.60   1.57654814 
548.70   1.57722617 
548.80   1.57788108 
548.90   1.57851290 
549.00   1.57912165 
549.10   1.57970736 
549.20   1.58027006 
549.30   1.58080977 
549.40   1.58132651 
549.50   1.58182031 
549.60   1.58229119 
549.70   1.58273916 
549.80   1.58316426 
549.90   1.58356649 
550.00   1.58394588 
550.10   1.58430244 
550.20   1.58463618 
550.30   1.58494713 
550.40   1.58523529 
550.50   1.58550067 
550.60   1.58574330 
550.70   1.47587710 
550.80   1.47818629 
550.90   1.48046866 
551.00   1.48272435 
551.10   1.48495347 
551.20   1.48715615 
551.30   1.48933250 
551.40   1.49148263 
551.50   1.49360667 
551.60   1.49570471 
551.70   1.49777688 
551.80   1.49982328 
551.90   1.50184401 
552.00   1.50383917 
552.10   1.50580887 
552.20   1.50775321 
552.30   1.50967229 
552.40   1.51156620 
552.50   1.51343504 
552.60   1.51527889 
552.70   1.51709786 
552.80   1.51889203 
552.90   1.52066148 
553.00   1.52240631 
553.10   1.52412659 
553.20   1.52582242 
553.30   1.52749387 
553.40   1.52914103 
553.50   1.53076396 
553.60   1.53236276 
553.70   1.53393748 
553.80   1.53548822 
553.90   1.53701504 
554.00   1.53851800 
554.10   1.53999719 
554.20   1.54145267 
554.30   1.54288451 
554.40   1.54429277 
554.50   1.54567751 
554.60   1.54703881 
554.70   1.54837672 
554.80   1.54969130 
554.90   1.55098261 
555.00   1.55225071 
555.10   1.55349567 
555.20   1.55471752 
555.30   1.55591633 
555.40   1.55709215 
555.50   1.55824503 
555.60   1.55937503 
555.70   1.56048219 
555.80   1.56156656 
555.90   1.56262819 
556.00   1.56366713 
556.10   1.56468341 
556.20   1.56567709 
556.30   1.56664821 
556.40   1.56759681 
556.50   1.56852292 
556.60   1.56942660 
556.70   1.57030788 
556.80   1.57116679 
556.90   1.57200338 
557.00   1.57281767 
557.10   1.57360971 
557.20   1.57437953 
557.30   1.57512715 
557.40   1.57585262 
557.50   1.57655596 
557.60   1.57723720 
557.70   1.57789637 
557.80   1.57853350 
557.90   1.57914861 
558.00   1.57974173 
558.10   1.58031289 
558.20   1.58086211 
558.30   1.58138941 
558.40   1.58189481 
558.50   1.58237833 
558.60   1.58284000 
558.70   1.58327984 
558.80   1.58369785 
558.90   1.58409407 
559.00   1.58446850 
559.10   1.58482116 
559.20   1.58515207 
559.30   1.58546123 
559.40   1.58574867 
559.50   1.58601439 
559.60   1.58625841 
559.70   1.47591842 
559.80   1.47818311 
559.90   1.48042210 
560.00   1.48263553 
560.10   1.48482351 
560.20   1.48698615 
560.30   1.48912355 
560.40   1.49123583 
560.50   1.49332310 
560.60   1.49538546 
560.70   1.49742301 
560.80   1.49943585 
560.90   1.50142408 
561.00   1.50338781 
561.10   1.50532712 
561.20   1.50724211 
561.30   1.50913287 
561.40   1.51099950 
561.50   1.51284208 
561.60   1.51466070 
561.70   1.51645545 
561.80   1.51822641 
561.90   1.51997366 
562.00   1.52169730 
562.10   1.52339739 
562.20   1.52507401 
562.30   1.52672725 
562.40   1.52835717 
562.50   1.52996386 
562.60   1.53154739 
562.70   1.53310782 
562.80   1.53464523 
562.90   1.53615969 
563.00   1.53765127 
563.10   1.53912003 
563.20   1.54056603 
563.30   1.54198935 
563.40   1.54339004 
563.50   1.54476817 
563.60   1.54612379 
563.70   1.54745697 
563.80   1.54876776 
563.90   1.55005622 
564.00   1.55132240 
564.10   1.55256637 
564.20   1.55378817 
564.30   1.55498785 
564.40   1.55616548 
564.50   1.55732108 
564.60   1.55845473 
564.70   1.55956646 
564.80   1.56065632 
564.90   1.56172435 
565.00   1.56277061 
565.10   1.56379513 
565.20   1.56479796 
565.30   1.56577913 
565.40   1.56673870 
565.50   1.56767670 
565.60   1.56859316 
565.70   1.56948813 
565.80   1.57036165 
565.90   1.57121374 
566.00   1.57204445 
566.10   1.57285380 
566.20   1.57364183 
566.30   1.57440858 
566.40   1.57515406 
566.50   1.57587833 
566.60   1.57658139 
566.70   1.57726329 
566.80   1.57792404 
566.90   1.57856368 
567.00   1.57918223 
567.10   1.57977971 
567.20   1.58035616 
567.30   1.58091158 
567.40   1.58144601 
567.50   1.58195947 
567.60   1.58245197 
567.70   1.58292354 
567.80   1.58337420 
567.90   1.58380395 
568.00   1.58421283 
568.10   1.58460084 
568.20   1.58496800 
568.30   1.58531432 
568.40   1.58563983 
568.50   1.58594453 
568.60   1.58622843 
568.70   1.58649154 
568.80   1.58673388 
568.90   1.58695546 
569.00   1.47598782 
569.10   1.47821124 
569.20   1.48040997 
569.30   1.48258413 
569.40   1.48473384 
569.50   1.48685919 
569.60   1.48896029 
569.70   1.49103724 
569.80   1.49309015 
569.90   1.49511911 
570.00   1.49712422 
570.10   1.49910558 
570.20   1.50106328 
570.30   1.50299740 
570.40   1.50490806 
570.50   1.50679532 
570.60   1.50865928 
570.70   1.51050004 
570.80   1.51231766 
570.90   1.51411223 
571.00   1.51588385 
571.10   1.51763258 
571.20   1.51935850 
571.30   1.52106170 
571.40   1.52274225 
571.50   1.52440023 
571.60   1.52603570 
571.70   1.52764874 
571.80   1.52923942 
571.90   1.53080782 
572.00   1.53235399 
572.10   1.53387801 
572.20   1.53537995 
572.30   1.53685986 
572.40   1.53831781 
572.50   1.53975387 
572.60   1.54116809 
572.70   1.54256054 
572.80   1.54393127 
572.90   1.54528034 
573.00   1.54660781 
573.10   1.54791373 
573.20   1.54919816 
573.30   1.55046115 
573.40   1.55170276 
573.50   1.55292303 
573.60   1.55412202 
573.70   1.55529977 
573.80   1.55645633 
573.90   1.55759176 
574.00   1.55870609 
574.10   1.55979937 
574.20   1.56087165 
574.30   1.56192296 
574.40   1.56295336 
574.50   1.56396288 
574.60   1.56495157 
574.70   1.56591946 
574.80   1.56686658 
574.90   1.56779299 
575.00   1.56869871 
575.10   1.56958379 
575.20   1.57044824 
575.30   1.57129212 
575.40   1.57211546 
575.50   1.57291827 
575.60   1.57370061 
575.70   1.57446249 
575.80   1.57520395 
575.90   1.57592502 
576.00   1.57662572 
576.10   1.57730608 
576.20   1.57796613 
576.30   1.57860589 
576.40   1.57922539 
576.50   1.57982465 
576.60   1.58040369 
576.70   1.58096254 
576.80   1.58150122 
576.90   1.58201975 
577.00   1.58251814 
577.10   1.58299643 
577.20   1.58345462 
577.30   1.58389273 
577.40   1.58431078 
577.50   1.58470879 
577.60   1.58508677 
577.70   1.58544473 
577.80   1.58578269 
577.90   1.58610067 
578.00   1.58639866 
578.10   1.58667670 
578.20   1.58693477 
578.30   1.58717291 
578.40   1.58739110 
578.50   1.47388197 
578.60   1.47609077 
578.70   1.47827570 
578.80   1.48043685 
578.90   1.48257433 
579.00   1.48468825 
579.10   1.48677870 
579.20   1.48884578 
579.30   1.49088959 
579.40   1.49291022 
579.50   1.49490778 
579.60   1.49688234 
579.70   1.49883401 
579.80   1.50076287 
579.90   1.50266901 
580.00   1.50455252 
580.10   1.50641347 
580.20   1.50825196 
580.30   1.51006807 
580.40   1.51186187 
580.50   1.51363345 
580.60   1.51538289 
580.70   1.51711025 
580.80   1.51881562 
580.90   1.52049907 
581.00   1.52216067 
581.10   1.52380050 
581.20   1.52541862 
581.30   1.52701511 
581.40   1.52859002 
581.50   1.53014344 
581.60   1.53167541 
581.70   1.53318602 
581.80   1.53467531 
581.90   1.53614336 
582.00   1.53759022 
582.10   1.53901596 
582.20   1.54042062 
582.30   1.54180428 
582.40   1.54316698 
582.50   1.54450878 
582.60   1.54582974 
582.70   1.54712991 
582.80   1.54840934 
582.90   1.54966809 
583.00   1.55090619 
583.10   1.55212371 
583.20   1.55332069 
583.30   1.55449718 
583.40   1.55565322 
583.50   1.55678887 
583.60   1.55790416 
583.70   1.55899914 
583.80   1.56007385 
583.90   1.56112833 
584.00   1.56216263 
584.10   1.56317678 
584.20   1.56417083 
584.30   1.56514481 
584.40   1.56609876 
584.50   1.56703271 
584.60   1.56794671 
584.70   1.56884078 
584.80   1.56971496 
584.90   1.57056929 
585.00   1.57140380 
585.10   1.57221851 
585.20   1.57301346 
585.30   1.57378868 
585.40   1.57454420 
585.50   1.57528004 
585.60   1.57599624 
585.70   1.57669281 
585.80   1.57736980 
585.90   1.57802721 
586.00   1.57866508 
586.10   1.57928344 
586.20   1.57988229 
586.30   1.58046167 
586.40   1.58102159 
586.50   1.58156209 
586.60   1.58208316 
586.70   1.58258485 
586.80   1.58306716 
586.90   1.58353011 
587.00   1.58397372 
587.10   1.58439801 
587.20   1.58480298 
587.30   1.58518867 
587.40   1.58555507 
587.50   1.58590220 
587.60   1.58623009 
587.70   1.58653873 
587.80   1.58682813 
587.90   1.58709832 
588.00   1.58734930 
588.10   1.58758107 
588.20   1.58779366 
588.30   1.58798705 
588.40   1.47406148 
588.50   1.47623333 
588.60   1.47838213 
588.70   1.48050797 
588.80   1.48261095 
588.90   1.48469118 
589.00   1.48674874 
589.10   1.48878373 
589.20   1.49079625 
589.30   1.49278638 
589.40   1.49475421 
589.50   1.49669983 
589.60   1.49862333 
589.70   1.50052480 
589.80   1.50240431 
589.90   1.50426194 
590.00   1.50609779 
590.10   1.50791193 
590.20   1.50970443 
590.30   1.51147538 
590.40   1.51322485 
590.50   1.51495292 
590.60   1.51665965 
590.70   1.51834512 
590.80   1.52000940 
590.90   1.52165256 
591.00   1.52327467 
591.10   1.52487580 
591.20   1.52645601 
591.30   1.52801536 
591.40   1.52955392 
591.50   1.53107176 
591.60   1.53256893 
591.70   1.53404549 
591.80   1.53550151 
591.90   1.53693704 
592.00   1.53835215 
592.10   1.53974687 
592.20   1.54112128 
592.30   1.54247543 
592.40   1.54380937 
592.50   1.54512314 
592.60   1.54641681 
592.70   1.54769043 
592.80   1.54894404 
592.90   1.55017768 
593.00   1.55139142 
593.10   1.55258530 
593.20   1.55375935 
593.30   1.55491363 
593.40   1.55604818 
593.50   1.55716305 
593.60   1.55825827 
593.70   1.55933389 
593.80   1.56038995 
593.90   1.56142648 
594.00   1.56244353 
594.10   1.56344114 
594.20   1.56441933 
594.30   1.56537816 
594.40   1.56631764 
594.50   1.56723783 
594.60   1.56813875 
594.70   1.56902043 
594.80   1.56988291 
594.90   1.57072623 
595.00   1.57155040 
595.10   1.57235546 
595.20   1.57314144 
595.30   1.57390837 
595.40   1.57465628 
595.50   1.57538519 
595.60   1.57609513 
595.70   1.57678612 
595.80   1.57745820 
595.90   1.57811138 
596.00   1.57874569 
596.10   1.57936115 
596.20   1.57995778 
596.30   1.58053560 
596.40   1.58109464 
596.50   1.58163491 
596.60   1.58215644 
596.70   1.58265924 
596.80   1.58314333 
596.90   1.58360873 
597.00   1.58405545 
597.10   1.58448351 
597.20   1.58489292 
597.30   1.58528371 
597.40   1.58565587 
597.50   1.58600943 
597.60   1.58634441 
597.70   1.58666080 
597.80   1.58695862 
597.90   1.58723788 
598.00   1.58749860 
598.10   1.58774077 
598.20   1.58796442 
598.30   1.58816954 
598.40   1.58835615 
598.50   1.58852425 
598.60   1.47214415 
598.70   1.47430291 
598.80   1.47643928 
598.90   1.47855336 
599.00   1.48064524 
599.10   1.48271501 
599.20   1.48476276 
599.30   1.48678860 
599.40   1.48879260 
599.50   1.49077485 
599.60   1.49273545 
599.70   1.49467447 
599.80   1.49659201 
599.90   1.49848813 
600.00   1.50036294 
600.10   1.50221649 
600.20   1.50404888 
600.30   1.50586018 
600.40   1.50765046 
600.50   1.50941981 
600.60   1.51116829 
600.70   1.51289597 
600.80   1.51460293 
600.90   1.51628925 
601.00   1.51795497 
601.10   1.51960019 
601.20   1.52122495 
601.30   1.52282933 
601.40   1.52441339 
601.50   1.52597719 
601.60   1.52752080 
601.70   1.52904428 
601.80   1.53054768 
601.90   1.53203107 
602.00   1.53349451 
602.10   1.53493805 
602.20   1.53636174 
602.30   1.53776565 
602.40   1.53914982 
602.50   1.54051432 
602.60   1.54185919 
602.70   1.54318448 
602.80   1.54449024 
602.90   1.54577653 
603.00   1.54704339 
603.10   1.54829087 
603.20   1.54951902 
603.30   1.55072788 
603.40   1.55191750 
603.50   1.55308792 
603.60   1.55423919 
603.70   1.55537134 
603.80   1.55648442 
603.90   1.55757847 
604.00   1.55865354 
604.10   1.55970965 
604.20   1.56074685 
604.30   1.56176518 
604.40   1.56276467 
604.50   1.56374536 
604.60   1.56470728 
604.70   1.56565048 
604.80   1.56657497 
604.90   1.56748080 
605.00   1.56836800 
605.10   1.56923660 
605.20   1.57008663 
605.30   1.57091812 
605.40   1.57173110 
605.50   1.57252560 
605.60   1.57330164 
605.70   1.57405926 
605.80   1.57479848 
605.90   1.57551933 
606.00   1.57622183 
606.10   1.57690601 
606.20   1.57757188 
606.30   1.57821948 
606.40   1.57884883 
606.50   1.57945994 
606.60   1.58005284 
606.70   1.58062755 
606.80   1.58118409 
606.90   1.58172248 
607.00   1.58224274 
607.10   1.58274488 
607.20   1.58322892 
607.30   1.58369488 
607.40   1.58414278 
607.50   1.58457262 
607.60   1.58498443 
607.70   1.58537822 
607.80   1.58575400 
607.90   1.58611179 
608.00   1.58645159 
608.10   1.58677342 
608.20   1.58707729 
608.30   1.58736321 
608.40   1.58763119 
608.50   1.58788124 
608.60   1.58811336 
608.70   1.58832757 
608.80   1.58852388 
608.90   1.58870228 
609.00   1.58886278 
609.10   1.58900540 
609.20   1.47034362 
609.30   1.47248908 
609.40   1.47461277 
609.50   1.47671478 
609.60   1.47879520 
609.70   1.48085413 
609.80   1.48289165 
609.90   1.48490785 
610.00   1.48690281 
610.10   1.48887663 
610.20   1.49082938 
610.30   1.49276116 
610.40   1.49467204 
610.50   1.49656209 
610.60   1.49843141 
610.70   1.50028006 
610.80   1.50210813 
610.90   1.50391568 
611.00   1.50570280 
611.10   1.50746955 
611.20   1.50921601 
611.30   1.51094224 
611.40   1.51264833 
611.50   1.51433432 
611.60   1.51600030 
611.70   1.51764632 
611.80   1.51927246 
611.90   1.52087877 
612.00   1.52246532 
612.10   1.52403218 
612.20   1.52557939 
612.30   1.52710702 
612.40   1.52861513 
612.50   1.53010378 
612.60   1.53157303 
612.70   1.53302292 
612.80   1.53445352 
612.90   1.53586487 
613.00   1.53725704 
613.10   1.53863007 
613.20   1.53998402 
613.30   1.54131893 
613.40   1.54263485 
613.50   1.54393184 
613.60   1.54520994 
613.70   1.54646920 
613.80   1.54770966 
613.90   1.54893136 
614.00   1.55013437 
614.10   1.55131870 
614.20   1.55248442 
614.30   1.55363156 
614.40   1.55476016 
614.50   1.55587026 
614.60   1.55696191 
614.70   1.55803513 
614.80   1.55908998 
614.90   1.56012648 
615.00   1.56114468 
615.10   1.56214460 
615.20   1.56312628 
615.30   1.56408977 
615.40   1.56503509 
615.50   1.56596227 
615.60   1.56687134 
615.70   1.56776235 
615.80   1.56863531 
615.90   1.56949027 
616.00   1.57032724 
616.10   1.57114626 
616.20   1.57194735 
616.30   1.57273055 
616.40   1.57349588 
616.50   1.57424336 
616.60   1.57497302 
616.70   1.57568489 
616.80   1.57637899 
616.90   1.57705534 
617.00   1.57771397 
617.10   1.57835490 
617.20   1.57897815 
617.30   1.57958373 
617.40   1.58017168 
617.50   1.58074201 
617.60   1.58129474 
617.70   1.58182988 
617.80   1.58234747 
617.90   1.58284750 
618.00   1.58333001 
618.10   1.58379500 
618.20   1.58424250 
618.30   1.58467250 
618.40   1.58508504 
618.50   1.58548013 
618.60   1.58585777 
618.70   1.58621798 
618.80   1.58656077 
618.90   1.58688616 
619.00   1.58719415 
619.10   1.58748475 
619.20   1.58775797 
619.30   1.58801383 
619.40   1.58825233 
619.50   1.58847347 
619.60   1.58867728 
619.70   1.58886374 
619.80   1.58903287 
619.90   1.58918468 
620.00   1.58931916 
620.10   1.58943633 
620.20   1.46866597 
620.30   1.47079771 
620.40   1.47290825 
620.50   1.47499769 
620.60   1.47706613 
620.70   1.47911364 
620.80   1.48114031 
620.90   1.48314623 
621.00   1.48513149 
621.10   1.48709617 
621.20   1.48904034 
621.30   1.49096409 
621.40   1.49286750 
621.50   1.49475064 
621.60   1.49661360 
621.70   1.49845644 
621.80   1.50027925 
621.90   1.50208208 
622.00   1.50386502 
622.10   1.50562814 
622.20   1.50737151 
622.30   1.50909519 
622.40   1.51079925 
622.50   1.51248376 
622.60   1.51414878 
622.70   1.51579438 
622.80   1.51742062 
622.90   1.51902756 
623.00   1.52061527 
623.10   1.52218380 
623.20   1.52373322 
623.30   1.52526357 
623.40   1.52677493 
623.50   1.52826734 
623.60   1.52974086 
623.70   1.53119555 
623.80   1.53263146 
623.90   1.53404864 
624.00   1.53544714 
624.10   1.53682701 
624.20   1.53818832 
624.30   1.53953109 
624.40   1.54085539 
624.50   1.54216126 
624.60   1.54344874 
624.70   1.54471789 
624.80   1.54596874 
624.90   1.54720135 
625.00   1.54841576 
625.10   1.54961200 
625.20   1.55079012 
625.30   1.55195017 
625.40   1.55309217 
625.50   1.55421618 
625.60   1.55532224 
625.70   1.55641037 
625.80   1.55748061 
625.90   1.55853302 
626.00   1.55956761 
626.10   1.56058442 
626.20   1.56158350 
626.30   1.56256487 
626.40   1.56352857 
626.50   1.56447463 
626.60   1.56540309 
626.70   1.56631396 
626.80   1.56720729 
626.90   1.56808310 
627.00   1.56894143 
627.10   1.56978230 
627.20   1.57060574 
627.30   1.57141178 
627.40   1.57220044 
627.50   1.57297175 
627.60   1.57372574 
627.70   1.57446243 
627.80   1.57518185 
627.90   1.57588401 
628.00   1.57656894 
628.10   1.57723667 
628.20   1.57788722 
628.30   1.57852060 
628.40   1.57913685 
628.50   1.57973597 
628.60   1.58031798 
628.70   1.58088292 
628.80   1.58143079 
628.90   1.58196161 
629.00   1.58247540 
629.10   1.58297218 
629.20   1.58345195 
629.30   1.58391475 
629.40   1.58436058 
629.50   1.58478946 
629.60   1.58520140 
629.70   1.58559641 
629.80   1.58597451 
629.90   1.58633570 
630.00   1.58668001 
630.10   1.58700744 
630.20   1.58731800 
630.30   1.58761170 
630.40   1.58788855 
630.50   1.58814857 
630.60   1.58839175 
630.70   1.58861810 
630.80   1.58882764 
630.90   1.58902037 
631.00   1.58919629 
631.10   1.58935542 
631.20   1.58949775 
631.30   1.58962329 
631.40   1.58973205 
631.50   1.58982403 
631.60   1.46711839 
631.70   1.46923573 
631.80   1.47133244 
631.90   1.47340860 
632.00   1.47546430 
632.10   1.47749963 
632.20   1.47951467 
632.30   1.48150950 
632.40   1.48348421 
632.50   1.48543887 
632.60   1.48737357 
632.70   1.48928838 
632.80   1.49118337 
632.90   1.49305864 
633.00   1.49491423 
633.10   1.49675024 
633.20   1.49856674 
633.30   1.50036378 
633.40   1.50214145 
633.50   1.50389982 
633.60   1.50563894 
633.70   1.50735889 
633.80   1.50905974 
633.90   1.51074154 
634.00   1.51240436 
634.10   1.51404826 
634.20   1.51567331 
634.30   1.51727956 
634.40   1.51886708 
634.50   1.52043592 
634.60   1.52198614 
634.70   1.52351780 
634.80   1.52503096 
634.90   1.52652566 
635.00   1.52800197 
635.10   1.52945993 
635.20   1.53089960 
635.30   1.53232103 
635.40   1.53372428 
635.50   1.53510938 
635.60   1.53647640 
635.70   1.53782537 
635.80   1.53915635 
635.90   1.54046938 
636.00   1.54176451 
636.10   1.54304178 
636.20   1.54430124 
636.30   1.54554293 
636.40   1.54676690 
636.50   1.54797318 
636.60   1.54916181 
636.70   1.55033285 
636.80   1.55148632 
636.90   1.55262228 
637.00   1.55374074 
637.10   1.55484176 
637.20   1.55592537 
637.30   1.55699160 
637.40   1.55804050 
637.50   1.55907210 
637.60   1.56008642 
637.70   1.56108351 
637.80   1.56206340 
637.90   1.56302612 
638.00   1.56397170 
638.10   1.56490018 
638.20   1.56581158 
638.30   1.56670593 
638.40   1.56758327 
638.50   1.56844361 
638.60   1.56928700 
638.70   1.57011345 
638.80   1.57092299 
638.90   1.57171566 
639.00   1.57249146 
639.10   1.57325044 
639.20   1.57399262 
639.30   1.57471801 
639.40   1.57542664 
639.50   1.57611853 
639.60   1.57679371 
639.70   1.57745220 
639.80   1.57809402 
639.90   1.57871918 
640.00   1.57932771 
640.10   1.57991963 
640.20   1.58049496 
640.30   1.58105371 
640.40   1.58159590 
640.50   1.58212155 
640.60   1.58263068 
640.70   1.58312329 
640.80   1.58359942 
640.90   1.58405906 
641.00   1.58450224 
641.10   1.58492897 
641.20   1.58533926 
641.30   1.58573313 
641.40   1.58611059 
641.50   1.58647165 
641.60   1.58681631 
641.70   1.58714460 
641.80   1.58745652 
641.90   1.58775208 
642.00   1.58803129 
642.10   1.58829416 
642.20   1.58854070 
642.30   1.58877091 
642.40   1.58898481 
642.50   1.58918239 
642.60   1.58936367 
642.70   1.58952865 
642.80   1.58967733 
642.90   1.58980972 
643.00   1.58992583 
643.10   1.59002565 
643.20   1.59010919 
643.30   1.59017646 
643.40   1.46570891 
643.50   1.46781096 
643.60   1.46989292 
643.70   1.47195488 
643.80   1.47399690 
643.90   1.47601908 
644.00   1.47802150 
644.10   1.48000424 
644.20   1.48196737 
644.30   1.48391098 
644.40   1.48583514 
644.50   1.48773993 
644.60   1.48962542 
644.70   1.49149168 
644.80   1.49333879 
644.90   1.49516682 
645.00   1.49697583 
645.10   1.49876590 
645.20   1.50053709 
645.30   1.50228948 
645.40   1.50402312 
645.50   1.50573808 
645.60   1.50743443 
645.70   1.50911223 
645.80   1.51077153 
645.90   1.51241241 
646.00   1.51403491 
646.10   1.51563911 
646.20   1.51722505 
646.30   1.51879279 
646.40   1.52034240 
646.50   1.52187393 
646.60   1.52338742 
646.70   1.52488294 
646.80   1.52636054 
646.90   1.52782026 
647.00   1.52926217 
647.10   1.53068631 
647.20   1.53209272 
647.30   1.53348147 
647.40   1.53485260 
647.50   1.53620614 
647.60   1.53754216 
647.70   1.53886070 
647.80   1.54016180 
647.90   1.54144550 
648.00   1.54271185 
648.10   1.54396089 
648.20   1.54519267 
648.30   1.54640722 
648.40   1.54760459 
648.50   1.54878481 
648.60   1.54994793 
648.70   1.55109398 
648.80   1.55222300 
648.90   1.55333502 
649.00   1.55443010 
649.10   1.55550825 
649.20   1.55656952 
649.30   1.55761393 
649.40   1.55864153 
649.50   1.55965235 
649.60   1.56064642 
649.70   1.56162377 
649.80   1.56258443 
649.90   1.56352843 
650.00   1.56445581 
650.10   1.56536660 
650.20   1.56626081 
650.30   1.56713848 
650.40   1.56799965 
650.50   1.56884433 
650.60   1.56967255 
650.70   1.57048434 
650.80   1.57127972 
650.90   1.57205872 
651.00   1.57282137 
651.10   1.57356768 
651.20   1.57429768 
651.30   1.57501140 
651.40   1.57570884 
651.50   1.57639005 
651.60   1.57705503 
651.70   1.57770381 
651.80   1.57833641 
651.90   1.57895285 
652.00   1.57955314 
652.10   1.58013731 
652.20   1.58070537 
652.30   1.58125734 
652.40   1.58179323 
652.50   1.58231307 
652.60   1.58281687 
652.70   1.58330464 
652.80   1.58377640 
652.90   1.58423217 
653.00   1.58467195 
653.10   1.58509576 
653.20   1.58550362 
653.30   1.58589553 
653.40   1.58627150 
653.50   1.58663156 
653.60   1.58697571 
653.70   1.58730396 
653.80   1.58761631 
653.90   1.58791279 
654.00   1.58819339 
654.10   1.58845813 
654.20   1.58870701 
654.30   1.58894005 
654.40   1.58915724 
654.50   1.58935860 
654.60   1.58954414 
654.70   1.58971384 
654.80   1.58986773 
654.90   1.59000581 
655.00   1.59012808 
655.10   1.59023454 
655.20   1.59032520 
655.30   1.59040006 
655.40   1.59045912 
655.50   1.59050238 
655.60   1.46236075 
655.70   1.46446556 
655.80   1.46655072 
655.90   1.46861632 
656.00   1.47066243 
656.10   1.47268915 
656.20   1.47469655 
656.30   1.47668471 
656.40   1.47865371 
656.50   1.48060362 
656.60   1.48253451 
656.70   1.48444648 
656.80   1.48633957 
656.90   1.48821388 
657.00   1.49006946 
657.10   1.49190639 
657.20   1.49372474 
657.30   1.49552458 
657.40   1.49730597 
657.50   1.49906897 
657.60   1.50081366 
657.70   1.50254009 
657.80   1.50424834 
657.90   1.50593845 
658.00   1.50761050 
658.10   1.50926454 
658.20   1.51090063 
658.30   1.51251883 
658.40   1.51411920 
658.50   1.51570179 
658.60   1.51726666 
658.70   1.51881386 
658.80   1.52034345 
658.90   1.52185548 
659.00   1.52335001 
659.10   1.52482708 
659.20   1.52628674 
659.30   1.52772905 
659.40   1.52915406 
659.50   1.53056181 
659.60   1.53195234 
659.70   1.53332572 
659.80   1.53468198 
659.90   1.53602116 
660.00   1.53734332 
660.10   1.53864850 
660.20   1.53993674 
660.30   1.54120808 
660.40   1.54246256 
660.50   1.54370023 
660.60   1.54492113 
660.70   1.54612529 
660.80   1.54731275 
660.90   1.54848356 
661.00   1.54963775 
661.10   1.55077536 
661.20   1.55189642 
661.30   1.55300097 
661.40   1.55408905 
661.50   1.55516069 
661.60   1.55621592 
661.70   1.55725478 
661.80   1.55827730 
661.90   1.55928351 
662.00   1.56027345 
662.10   1.56124714 
662.20   1.56220462 
662.30   1.56314591 
662.40   1.56407104 
662.50   1.56498005 
662.60   1.56587296 
662.70   1.56674980 
662.80   1.56761059 
662.90   1.56845536 
663.00   1.56928415 
663.10   1.57009696 
663.20   1.57089384 
663.30   1.57167479 
663.40   1.57243985 
663.50   1.57318904 
663.60   1.57392238 
663.70   1.57463990 
663.80   1.57534161 
663.90   1.57602754 
664.00   1.57669770 
664.10   1.57735212 
664.20   1.57799082 
664.30   1.57861382 
664.40   1.57922113 
664.50   1.57981277 
664.60   1.58038876 
664.70   1.58094912 
664.80   1.58149386 
664.90   1.58202300 
665.00   1.58253656 
665.10   1.58303455 
665.20   1.58351699 
665.30   1.58398388 
665.40   1.58443525 
665.50   1.58487110 
665.60   1.58529146 
665.70   1.58569632 
665.80   1.58608571 
665.90   1.58645964 
666.00   1.58681811 
666.10   1.58716114 
666.20   1.58748873 
666.30   1.58780090 
666.40   1.58809766 
666.50   1.58837900 
666.60   1.58864496 
666.70   1.58889552 
666.80   1.58913069 
666.90   1.58935050 
667.00   1.58955493 
667.10   1.58974400 
667.20   1.58991771 
667.30   1.59007606 
667.40   1.59021907 
667.50   1.59034673 
667.60   1.59045905 
667.70   1.59055604 
667.80   1.59063769 
667.90   1.59070400 
668.00   1.59075499 
668.10   1.59079065 
668.20   1.59081098 
668.30   1.59081598 
668.40   1.46131216 
668.50   1.46339775 
668.60   1.46546422 
668.70   1.46751167 
668.80   1.46954016 
668.90   1.47154978 
669.00   1.47354060 
669.10   1.47551271 
669.20   1.47746616 
669.30   1.47940105 
669.40   1.48131743 
669.50   1.48321539 
669.60   1.48509500 
669.70   1.48695631 
669.80   1.48879941 
669.90   1.49062436 
670.00   1.49243122 
670.10   1.49422006 
670.20   1.49599095 
670.30   1.49774396 
670.40   1.49947913 
670.50   1.50119654 
670.60   1.50289624 
670.70   1.50457830 
670.80   1.50624277 
670.90   1.50788972 
671.00   1.50951919 
671.10   1.51113125 
671.20   1.51272596 
671.30   1.51430336 
671.40   1.51586351 
671.50   1.51740647 
671.60   1.51893228 
671.70   1.52044100 
671.80   1.52193269 
671.90   1.52340738 
672.00   1.52486512 
672.10   1.52630598 
672.20   1.52772999 
672.30   1.52913720 
672.40   1.53052766 
672.50   1.53190142 
672.60   1.53325851 
672.70   1.53459899 
672.80   1.53592289 
672.90   1.53723026 
673.00   1.53852115 
673.10   1.53979558 
673.20   1.54105361 
673.30   1.54229528 
673.40   1.54352061 
673.50   1.54472966 
673.60   1.54592246 
673.70   1.54709905 
673.80   1.54825946 
673.90   1.54940374 
674.00   1.55053191 
674.10   1.55164401 
674.20   1.55274008 
674.30   1.55382015 
674.40   1.55488425 
674.50   1.55593243 
674.60   1.55696470 
674.70   1.55798110 
674.80   1.55898166 
674.90   1.55996641 
675.00   1.56093539 
675.10   1.56188861 
675.20   1.56282612 
675.30   1.56374794 
675.40   1.56465409 
675.50   1.56554460 
675.60   1.56641951 
675.70   1.56727883 
675.80   1.56812259 
675.90   1.56895082 
676.00   1.56976354 
676.10   1.57056078 
676.20   1.57134256 
676.30   1.57210889 
676.40   1.57285982 
676.50   1.57359535 
676.60   1.57431550 
676.70   1.57502031 
676.80   1.57570979 
676.90   1.57638396 
677.00   1.57704283 
677.10   1.57768644 
677.20   1.57831479 
677.30   1.57892791 
677.40   1.57952582 
677.50   1.58010852 
677.60   1.58067604 
677.70   1.58122840 
677.80   1.58176560 
677.90   1.58228767 
678.00   1.58279462 
678.10   1.58328647 
678.20   1.58376322 
678.30   1.58422490 
678.40   1.58467152 
678.50   1.58510308 
678.60   1.58551960 
678.70   1.58592109 
678.80   1.58630757 
678.90   1.58667905 
679.00   1.58703552 
679.10   1.58737702 
679.20   1.58770354 
679.30   1.58801509 
679.40   1.58831169 
679.50   1.58859334 
679.60   1.58886005 
679.70   1.58911183 
679.80   1.58934868 
679.90   1.58957061 
680.00   1.58977763 
680.10   1.58996974 
680.20   1.59014695 
680.30   1.59030926 
680.40   1.59045668 
680.50   1.59058922 
680.60   1.59070687 
680.70   1.59080963 
680.80   1.59089752 
680.90   1.59097054 
681.00   1.59102868 
681.10   1.59107195 
681.20   1.59110035 
681.30   1.59111388 
681.40   1.59111254 
681.50   1.59109633 
681.60   1.45836740 
681.70   1.46045047 
681.80   1.46251488 
681.90   1.46456073 
682.00   1.46658807 
682.10   1.46859699 
682.20   1.47058757 
682.30   1.47255987 
682.40   1.47451398 
682.50   1.47644996 
682.60   1.47836789 
682.70   1.48026783 
682.80   1.48214986 
682.90   1.48401404 
683.00   1.48586045 
683.10   1.48768913 
683.20   1.48950017 
683.30   1.49129363 
683.40   1.49306957 
683.50   1.49482805 
683.60   1.49656913 
683.70   1.49829287 
683.80   1.49999934 
683.90   1.50168859 
684.00   1.50336069 
684.10   1.50501568 
684.20   1.50665362 
684.30   1.50827458 
684.40   1.50987860 
684.50   1.51146574 
684.60   1.51303605 
684.70   1.51458958 
684.80   1.51612639 
684.90   1.51764653 
685.00   1.51915004 
685.10   1.52063698 
685.20   1.52210739 
685.30   1.52356132 
685.40   1.52499883 
685.50   1.52641995 
685.60   1.52782473 
685.70   1.52921321 
685.80   1.53058545 
685.90   1.53194148 
686.00   1.53328135 
686.10   1.53460510 
686.20   1.53591278 
686.30   1.53720441 
686.40   1.53848005 
686.50   1.53973973 
686.60   1.54098349 
686.70   1.54221137 
686.80   1.54342341 
686.90   1.54461964 
687.00   1.54580011 
687.10   1.54696484 
687.20   1.54811388 
687.30   1.54924726 
687.40   1.55036501 
687.50   1.55146717 
687.60   1.55255377 
687.70   1.55362484 
687.80   1.55468041 
687.90   1.55572053 
688.00   1.55674520 
688.10   1.55775448 
688.20   1.55874839 
688.30   1.55972695 
688.40   1.56069019 
688.50   1.56163816 
688.60   1.56257086 
688.70   1.56348833 
688.80   1.56439060 
688.90   1.56527769 
689.00   1.56614963 
689.10   1.56700645 
689.20   1.56784816 
689.30   1.56867479 
689.40   1.56948638 
689.50   1.57028293 
689.60   1.57106447 
689.70   1.57183103 
689.80   1.57258262 
689.90   1.57331928 
690.00   1.57404101 
690.10   1.57474785 
690.20   1.57543980 
690.30   1.57611689 
690.40   1.57677915 
690.50   1.57742657 
690.60   1.57805920 
690.70   1.57867704 
690.80   1.57928011 
690.90   1.57986842 
691.00   1.58044201 
691.10   1.58100087 
691.20   1.58154503 
691.30   1.58207449 
691.40   1.58258929 
691.50   1.58308942 
691.60   1.58357491 
691.70   1.58404577 
691.80   1.58450200 
691.90   1.58494363 
692.00   1.58537067 
692.10   1.58578312 
692.20   1.58618100 
692.30   1.58656432 
692.40   1.58693309 
692.50   1.58728732 
692.60   1.58762702 
692.70   1.58795220 
692.80   1.58826286 
692.90   1.58855903 
693.00   1.58884070 
693.10   1.58910788 
693.20   1.58936058 
693.30   1.58959880 
693.40   1.58982256 
693.50   1.59003186 
693.60   1.59022671 
693.70   1.59040710 
693.80   1.59057305 
693.90   1.59072456 
694.00   1.59086164 
694.10   1.59098428 
694.20   1.59109249 
694.30   1.59118628 
694.40   1.59126564 
694.50   1.59133058 
694.60   1.59138110 
694.70   1.59141721 
694.80   1.59143889 
694.90   1.59144616 
695.00   1.59143902 
695.10   1.59141745 
695.20   1.59138147 
695.30   1.59133107 
695.40   1.45772573 
695.50   1.45978499 
695.60   1.46182614 
695.70   1.46384926 
695.80   1.46585442 
695.90   1.46784170 
696.00   1.46981117 
696.10   1.47176289 
696.20   1.47369694 
696.30   1.47561340 
696.40   1.47751232 
696.50   1.47939377 
696.60   1.48125783 
696.70   1.48310456 
696.80   1.48493402 
696.90   1.48674627 
697.00   1.48854138 
697.10   1.49031942 
697.20   1.49208043 
697.30   1.49382449 
697.40   1.49555165 
697.50   1.49726196 
697.60   1.49895550 
697.70   1.50063231 
697.80   1.50229245 
697.90   1.50393597 
698.00   1.50556294 
698.10   1.50717340 
698.20   1.50876740 
698.30   1.51034501 
698.40   1.51190626 
698.50   1.51345121 
698.60   1.51497992 
698.70   1.51649242 
698.80   1.51798877 
698.90   1.51946902 
699.00   1.52093321 
699.10   1.52238138 
699.20   1.52381360 
699.30   1.52522989 
699.40   1.52663031 
699.50   1.52801489 
699.60   1.52938368 
699.70   1.53073673 
699.80   1.53207407 
699.90   1.53339575 
700.00   1.53470180 
700.10   1.53599227 
700.20   1.53726719 
700.30   1.53852661 
700.40   1.53977056 
700.50   1.54099908 
700.60   1.54221220 
700.70   1.54340997 
700.80   1.54459242 
700.90   1.54575958 
701.00   1.54691148 
701.10   1.54804817 
701.20   1.54916968 
701.30   1.55027603 
701.40   1.55136727 
701.50   1.55244341 
701.60   1.55350451 
701.70   1.55455057 
701.80   1.55558164 
701.90   1.55659775 
702.00   1.55759892 
702.10   1.55858519 
702.20   1.55955657 
702.30   1.56051311 
702.40   1.56145482 
702.50   1.56238174 
702.60   1.56329388 
702.70   1.56419128 
702.80   1.56507396 
702.90   1.56594195 
703.00   1.56679527 
703.10   1.56763394 
703.20   1.56845799 
703.30   1.56926744 
703.40   1.57006231 
703.50   1.57084263 
703.60   1.57160841 
703.70   1.57235969 
703.80   1.57309647 
703.90   1.57381878 
704.00   1.57452664 
704.10   1.57522007 
704.20   1.57589909 
704.30   1.57656371 
704.40   1.57721396 
704.50   1.57784986 
704.60   1.57847141 
704.70   1.57907864 
704.80   1.57967156 
704.90   1.58025019 
705.00   1.58081454 
705.10   1.58136464 
705.20   1.58190049 
705.30   1.58242211 
705.40   1.58292952 
705.50   1.58342272 
705.60   1.58390173 
705.70   1.58436657 
705.80   1.58481724 
705.90   1.58525376 
706.00   1.58567614 
706.10   1.58608440 
706.20   1.58647853 
706.30   1.58685856 
706.40   1.58722448 
706.50   1.58757633 
706.60   1.58791409 
706.70   1.58823778 
706.80   1.58854742 
706.90   1.58884300 
707.00   1.58912453 
707.10   1.58939203 
707.20   1.58964550 
707.30   1.58988495 
707.40   1.59011038 
707.50   1.59032179 
707.60   1.59051921 
707.70   1.59070262 
707.80   1.59087203 
707.90   1.59102746 
708.00   1.59116890 
708.10   1.59129635 
708.20   1.59140983 
708.30   1.59150933 
708.40   1.59159486 
708.50   1.59166641 
708.60   1.59172399 
708.70   1.59176761 
708.80   1.59179726 
708.90   1.59181294 
709.00   1.59181465 
709.10   1.59180240 
709.20   1.59177618 
709.30   1.59173600 
709.40   1.59168185 
709.50   1.59161372 
709.60   1.59153163 
709.70   1.45321422 
709.80   1.45528186 
709.90   1.45733180 
710.00   1.45936413 
710.10   1.46137892 
710.20   1.46337623 
710.30   1.46535614 
710.40   1.46731873 
710.50   1.46926405 
710.60   1.47119218 
710.70   1.47310318 
710.80   1.47499713 
710.90   1.47687408 
711.00   1.47873411 
711.10   1.48057727 
711.20   1.48240363 
711.30   1.48421326 
711.40   1.48600620 
711.50   1.48778253 
711.60   1.48954230 
711.70   1.49128557 
711.80   1.49301240 
711.90   1.49472284 
712.00   1.49641695 
712.10   1.49809479 
712.20   1.49975642 
712.30   1.50140188 
712.40   1.50303122 
712.50   1.50464451 
712.60   1.50624179 
712.70   1.50782311 
712.80   1.50938853 
712.90   1.51093809 
713.00   1.51247184 
713.10   1.51398983 
713.20   1.51549211 
713.30   1.51697872 
713.40   1.51844971 
713.50   1.51990512 
713.60   1.52134501 
713.70   1.52276941 
713.80   1.52417836 
713.90   1.52557192 
714.00   1.52695012 
714.10   1.52831300 
714.20   1.52966061 
714.30   1.53099298 
714.40   1.53231015 
714.50   1.53361217 
714.60   1.53489907 
714.70   1.53617090 
714.80   1.53742768 
714.90   1.53866945 
715.00   1.53989626 
715.10   1.54110813 
715.20   1.54230511 
715.30   1.54348722 
715.40   1.54465450 
715.50   1.54580699 
715.60   1.54694471 
715.70   1.54806771 
715.80   1.54917600 
715.90   1.55026963 
716.00   1.55134863 
716.10   1.55241301 
716.20   1.55346283 
716.30   1.55449810 
716.40   1.55551885 
716.50   1.55652511 
716.60   1.55751692 
716.70   1.55849429 
716.80   1.55945726 
716.90   1.56040585 
717.00   1.56134008 
717.10   1.56225999 
717.20   1.56316560 
717.30   1.56405694 
717.40   1.56493402 
717.50   1.56579687 
717.60   1.56664552 
717.70   1.56747999 
717.80   1.56830030 
717.90   1.56910647 
718.00   1.56989853 
718.10   1.57067649 
718.20   1.57144039 
718.30   1.57219023 
718.40   1.57292603 
718.50   1.57364783 
718.60   1.57435563 
718.70   1.57504946 
718.80   1.57572934 
718.90   1.57639527 
719.00   1.57704729 
719.10   1.57768541 
719.20   1.57830963 
719.30   1.57891999 
719.40   1.57951650 
719.50   1.58009917 
719.60   1.58066801 
719.70   1.58122305 
719.80   1.58176430 
719.90   1.58229177 
720.00   1.58280547 
720.10   1.58330542 
720.20   1.58379164 
720.30   1.58426413 
720.40   1.58472290 
720.50   1.58516797 
720.60   1.58559936 
720.70   1.58601706 
720.80   1.58642110 
720.90   1.58681147 
721.00   1.58718821 
721.10   1.58755130 
721.20   1.58790076 
721.30   1.58823661 
721.40   1.58855884 
721.50   1.58886748 
721.60   1.58916251 
721.70   1.58944396 
721.80   1.58971183 
721.90   1.58996613 
722.00   1.59020686 
722.10   1.59043403 
722.20   1.59064765 
722.30   1.59084772 
722.40   1.59103424 
722.50   1.59120723 
722.60   1.59136668 
722.70   1.59151260 
722.80   1.59164499 
722.90   1.59176386 
723.00   1.59186921 
723.10   1.59196104 
723.20   1.59203935 
723.30   1.59210416 
723.40   1.59215545 
723.50   1.59219322 
723.60   1.59221749 
723.70   1.59222826 
723.80   1.59222551 
723.90   1.59220925 
724.00   1.59217949 
724.10   1.59213621 
724.20   1.59207942 
724.30   1.59200912 
724.40   1.59192531 
724.50   1.59182798 
724.60   1.59171713 
724.70   1.45309540 
724.80   1.45513272 
724.90   1.45715293 
725.00   1.45915609 
725.10   1.46114228 
725.20   1.46311156 
725.30   1.46506401 
725.40   1.46699970 
725.50   1.46891868 
725.60   1.47082102 
725.70   1.47270679 
725.80   1.47457606 
725.90   1.47642887 
726.00   1.47826531 
726.10   1.48008542 
726.20   1.48188927 
726.30   1.48367691 
726.40   1.48544841 
726.50   1.48720383 
726.60   1.48894321 
726.70   1.49066662 
726.80   1.49237411 
726.90   1.49406573 
727.00   1.49574155 
727.10   1.49740161 
727.20   1.49904596 
727.30   1.50067466 
727.40   1.50228776 
727.50   1.50388530 
727.60   1.50546734 
727.70   1.50703393 
727.80   1.50858511 
727.90   1.51012094 
728.00   1.51164145 
728.10   1.51314670 
728.20   1.51463673 
728.30   1.51611158 
728.40   1.51757130 
728.50   1.51901593 
728.60   1.52044553 
728.70   1.52186011 
728.80   1.52325974 
728.90   1.52464445 
729.00   1.52601429 
729.10   1.52736928 
729.20   1.52870948 
729.30   1.53003491 
729.40   1.53134563 
729.50   1.53264166 
729.60   1.53392304 
729.70   1.53518982 
729.80   1.53644202 
729.90   1.53767968 
730.00   1.53890284 
730.10   1.54011154 
730.20   1.54130579 
730.30   1.54248565 
730.40   1.54365114 
730.50   1.54480230 
730.60   1.54593915 
730.70   1.54706173 
730.80   1.54817006 
730.90   1.54926419 
731.00   1.55034414 
731.10   1.55140994 
731.20   1.55246162 
731.30   1.55349920 
731.40   1.55452272 
731.50   1.55553221 
731.60   1.55652768 
731.70   1.55750917 
731.80   1.55847671 
731.90   1.55943031 
732.00   1.56037002 
732.10   1.56129584 
732.20   1.56220781 
732.30   1.56310594 
732.40   1.56399027 
732.50   1.56486082 
732.60   1.56571761 
732.70   1.56656066 
732.80   1.56738999 
732.90   1.56820563 
733.00   1.56900760 
733.10   1.56979592 
733.20   1.57057060 
733.30   1.57133168 
733.40   1.57207916 
733.50   1.57281307 
733.60   1.57353343 
733.70   1.57424026 
733.80   1.57493357 
733.90   1.57561338 
734.00   1.57627972 
734.10   1.57693258 
734.20   1.57757201 
734.30   1.57819800 
734.40   1.57881058 
734.50   1.57940976 
734.60   1.57999555 
734.70   1.58056798 
734.80   1.58112705 
734.90   1.58167278 
735.00   1.58220519 
735.10   1.58272429 
735.20   1.58323008 
735.30   1.58372259 
735.40   1.58420182 
735.50   1.58466779 
735.60   1.58512052 
735.70   1.58556000 
735.80   1.58598625 
735.90   1.58639929 
736.00   1.58679911 
736.10   1.58718574 
736.20   1.58755919 
736.30   1.58791945 
736.40   1.58826655 
736.50   1.58860048 
736.60   1.58892127 
736.70   1.58922890 
736.80   1.58952340 
736.90   1.58980478 
737.00   1.59007302 
737.10   1.59032816 
737.20   1.59057018 
737.30   1.59079910 
737.40   1.59101492 
737.50   1.59121765 
737.60   1.59140729 
737.70   1.59158385 
737.80   1.59174733 
737.90   1.59189773 
738.00   1.59203507 
738.10   1.59215933 
738.20   1.59227053 
738.30   1.59236867 
738.40   1.59245375 
738.50   1.59252578 
738.60   1.59258474 
738.70   1.59263066 
738.80   1.59266352 
738.90   1.59268333 
739.00   1.59269009 
739.10   1.59268379 
739.20   1.59266445 
739.30   1.59263205 
739.40   1.59258660 
739.50   1.59252809 
739.60   1.59245653 
739.70   1.59237192 
739.80   1.59227424 
739.90   1.59216350 
740.00   1.59203970 
740.10   1.59190283 
740.20   1.44918748 
740.30   1.45122454 
740.40   1.45324494 
740.50   1.45524876 
740.60   1.45723607 
740.70   1.45920692 
740.80   1.46116139 
740.90   1.46309954 
741.00   1.46502144 
741.10   1.46692716 
741.20   1.46881675 
741.30   1.47069027 
741.40   1.47254780 
741.50   1.47438938 
741.60   1.47621508 
741.70   1.47802496 
741.80   1.47981907 
741.90   1.48159748 
742.00   1.48336023 
742.10   1.48510739 
742.20   1.48683901 
742.30   1.48855515 
742.40   1.49025585 
742.50   1.49194117 
742.60   1.49361117 
742.70   1.49526589 
742.80   1.49690538 
742.90   1.49852970 
743.00   1.50013889 
743.10   1.50173300 
743.20   1.50331208 
743.30   1.50487618 
743.40   1.50642535 
743.50   1.50795962 
743.60   1.50947906 
743.70   1.51098369 
743.80   1.51247356 
743.90   1.51394873 
744.00   1.51540922 
744.10   1.51685509 
744.20   1.51828638 
744.30   1.51970312 
744.40   1.52110536 
744.50   1.52249313 
744.60   1.52386648 
744.70   1.52522545 
744.80   1.52657007 
744.90   1.52790039 
745.00   1.52921643 
745.10   1.53051824 
745.20   1.53180585 
745.30   1.53307930 
745.40   1.53433863 
745.50   1.53558386 
745.60   1.53681503 
745.70   1.53803218 
745.80   1.53923534 
745.90   1.54042455 
746.00   1.54159982 
746.10   1.54276121 
746.20   1.54390873 
746.30   1.54504242 
746.40   1.54616231 
746.50   1.54726842 
746.60   1.54836080 
746.70   1.54943946 
746.80   1.55050445 
746.90   1.55155577 
747.00   1.55259347 
747.10   1.55361756 
747.20   1.55462809 
747.30   1.55562506 
747.40   1.55660852 
747.50   1.55757848 
747.60   1.55853497 
747.70   1.55947801 
747.80   1.56040763 
747.90   1.56132385 
748.00   1.56222671 
748.10   1.56311621 
748.20   1.56399238 
748.30   1.56485525 
748.40   1.56570483 
748.50   1.56654115 
748.60   1.56736424 
748.70   1.56817410 
748.80   1.56897076 
748.90   1.56975425 
749.00   1.57052457 
749.10   1.57128176 
749.20   1.57202582 
749.30   1.57275678 
749.40   1.57347466 
749.50   1.57417947 
749.60   1.57487123 
749.70   1.57554996 
749.80   1.57621568 
749.90   1.57686840 
750.00   1.57750814 
750.10   1.57813491 
750.20   1.57874873 
750.30   1.57934961 
750.40   1.57993757 
750.50   1.58051263 
750.60   1.58107479 
750.70   1.58162408 
750.80   1.58216050 
750.90   1.58268406 
751.00   1.58319479 
751.10   1.58369269 
751.20   1.58417778 
751.30   1.58465006 
751.40   1.58510956 
751.50   1.58555627 
751.60   1.58599021 
751.70   1.58641139 
751.80   1.58681982 
751.90   1.58721551 
752.00   1.58759848 
752.10   1.58796872 
752.20   1.58832625 
752.30   1.58867108 
752.40   1.58900321 
752.50   1.58932266 
752.60   1.58962943 
752.70   1.58992352 
752.80   1.59020495 
752.90   1.59047373 
753.00   1.59072985 
753.10   1.59097332 
753.20   1.59120416 
753.30   1.59142236 
753.40   1.59162793 
753.50   1.59182088 
753.60   1.59200121 
753.70   1.59216892 
753.80   1.59232402 
753.90   1.59246651 
754.00   1.59259640 
754.10   1.59271369 
754.20   1.59281838 
754.30   1.59291048 
754.40   1.59298998 
754.50   1.59305689 
754.60   1.59311120 
754.70   1.59315293 
754.80   1.59318207 
754.90   1.59319863 
755.00   1.59320260 
755.10   1.59319398 
755.20   1.59317277 
755.30   1.59313897 
755.40   1.59309259 
755.50   1.59303362 
755.60   1.59296206 
755.70   1.59287790 
755.80   1.59278115 
755.90   1.59267181 
756.00   1.59254986 
756.10   1.59241531 
756.20   1.59226816 
756.30   1.59210839 
756.40   1.44563828 
756.50   1.44766976 
756.60   1.44968508 
756.70   1.45168429 
756.80   1.45366748 
756.90   1.45563470 
757.00   1.45758601 
757.10   1.45952149 
757.20   1.46144119 
757.30   1.46334518 
757.40   1.46523351 
757.50   1.46710625 
757.60   1.46896346 
757.70   1.47080520 
757.80   1.47263152 
757.90   1.47444249 
758.00   1.47623815 
758.10   1.47801857 
758.20   1.47978379 
758.30   1.48153388 
758.40   1.48326888 
758.50   1.48498886 
758.60   1.48669386 
758.70   1.48838393 
758.80   1.49005913 
758.90   1.49171950 
759.00   1.49336509 
759.10   1.49499596 
759.20   1.49661214 
759.30   1.49821370 
759.40   1.49980067 
759.50   1.50137310 
759.60   1.50293104 
759.70   1.50447453 
759.80   1.50600362 
759.90   1.50751835 
760.00   1.50901876 
760.10   1.51050490 
760.20   1.51197681 
760.30   1.51343453 
760.40   1.51487809 
760.50   1.51630755 
760.60   1.51772294 
760.70   1.51912430 
760.80   1.52051167 
760.90   1.52188509 
761.00   1.52324459 
761.10   1.52459022 
761.20   1.52592200 
761.30   1.52723998 
761.40   1.52854419 
761.50   1.52983467 
761.60   1.53111145 
761.70   1.53237456 
761.80   1.53362405 
761.90   1.53485993 
762.00   1.53608225 
762.10   1.53729104 
762.20   1.53848633 
762.30   1.53966814 
762.40   1.54083652 
762.50   1.54199150 
762.60   1.54313309 
762.70   1.54426134 
762.80   1.54537627 
762.90   1.54647790 
763.00   1.54756628 
763.10   1.54864142 
763.20   1.54970336 
763.30   1.55075212 
763.40   1.55178773 
763.50   1.55281021 
763.60   1.55381959 
763.70   1.55481590 
763.80   1.55579916 
763.90   1.55676939 
764.00   1.55772662 
764.10   1.55867088 
764.20   1.55960218 
764.30   1.56052056 
764.40   1.56142603 
764.50   1.56231861 
764.60   1.56319833 
764.70   1.56406522 
764.80   1.56491928 
764.90   1.56576054 
765.00   1.56658903 
765.10   1.56740476 
765.20   1.56820775 
765.30   1.56899803 
765.40   1.56977560 
765.50   1.57054050 
765.60   1.57129274 
765.70   1.57203233 
765.80   1.57275930 
765.90   1.57347366 
766.00   1.57417543 
766.10   1.57486462 
766.20   1.57554126 
766.30   1.57620536 
766.40   1.57685693 
766.50   1.57749599 
766.60   1.57812256 
766.70   1.57873665 
766.80   1.57933828 
766.90   1.57992745 
767.00   1.58050419 
767.10   1.58106850 
767.20   1.58162040 
767.30   1.58215991 
767.40   1.58268703 
767.50   1.58320178 
767.60   1.58370417 
767.70   1.58419422 
767.80   1.58467192 
767.90   1.58513730 
768.00   1.58559037 
768.10   1.58603113 
768.20   1.58645960 
768.30   1.58687578 
768.40   1.58727969 
768.50   1.58767134 
768.60   1.58805073 
768.70   1.58841787 
768.80   1.58877278 
768.90   1.58911545 
769.00   1.58944590 
769.10   1.58976414 
769.20   1.59007017 
769.30   1.59036400 
769.40   1.59064563 
769.50   1.59091508 
769.60   1.59117235 
769.70   1.59141744 
769.80   1.59165037 
769.90   1.59187113 
770.00   1.59207973 
770.10   1.59227617 
770.20   1.59246047 
770.30   1.59263262 
770.40   1.59279263 
770.50   1.59294050 
770.60   1.59307624 
770.70   1.59319984 
770.80   1.59331132 
770.90   1.59341067 
771.00   1.59349790 
771.10   1.59357301 
771.20   1.59363599 
771.30   1.59368686 
771.40   1.59372561 
771.50   1.59375224 
771.60   1.59376676 
771.70   1.59376916 
771.80   1.59375945 
771.90   1.59373762 
772.00   1.59370367 
772.10   1.59365761 
772.20   1.59359942 
772.30   1.59352912 
772.40   1.59344670 
772.50   1.59335216 
772.60   1.59324549 
772.70   1.59312669 
772.80   1.59299576 
772.90   1.59285270 
773.00   1.59269750 
773.10   1.59253017 
773.20   1.59235068 
773.30   1.59215906 
773.40   1.44249857 
773.50   1.44451872 
773.60   1.44652321 
773.70   1.44851213 
773.80   1.45048553 
773.90   1.45244347 
774.00   1.45438602 
774.10   1.45631325 
774.20   1.45822520 
774.30   1.46012194 
774.40   1.46200354 
774.50   1.46387004 
774.60   1.46572151 
774.70   1.46755800 
774.80   1.46937957 
774.90   1.47118627 
775.00   1.47297817 
775.10   1.47475530 
775.20   1.47651774 
775.30   1.47826552 
775.40   1.47999870 
775.50   1.48171734 
775.60   1.48342147 
775.70   1.48511116 
775.80   1.48678646 
775.90   1.48844740 
776.00   1.49009404 
776.10   1.49172643 
776.20   1.49334461 
776.30   1.49494862 
776.40   1.49653853 
776.50   1.49811436 
776.60   1.49967616 
776.70   1.50122399 
776.80   1.50275787 
776.90   1.50427785 
777.00   1.50578399 
777.10   1.50727630 
777.20   1.50875485 
777.30   1.51021966 
777.40   1.51167078 
777.50   1.51310825 
777.60   1.51453211 
777.70   1.51594239 
777.80   1.51733913 
777.90   1.51872238 
778.00   1.52009216 
778.10   1.52144851 
778.20   1.52279147 
778.30   1.52412108 
778.40   1.52543737 
778.50   1.52674037 
778.60   1.52803011 
778.70   1.52930664 
778.80   1.53056999 
778.90   1.53182018 
779.00   1.53305725 
779.10   1.53428123 
779.20   1.53549215 
779.30   1.53669005 
779.40   1.53787495 
779.50   1.53904688 
779.60   1.54020588 
779.70   1.54135196 
779.80   1.54248517 
779.90   1.54360553 
780.00   1.54471307 
780.10   1.54580781 
780.20   1.54688979 
780.30   1.54795902 
780.40   1.54901554 
780.50   1.55005937 
780.60   1.55109054 
780.70   1.55210906 
780.80   1.55311498 
780.90   1.55410831 
781.00   1.55508907 
781.10   1.55605729 
781.20   1.55701300 
781.30   1.55795621 
781.40   1.55888695 
781.50   1.55980524 
781.60   1.56071110 
781.70   1.56160456 
781.80   1.56248564 
781.90   1.56335435 
782.00   1.56421071 
782.10   1.56505476 
782.20   1.56588650 
782.30   1.56670596 
782.40   1.56751316 
782.50   1.56830811 
782.60   1.56909084 
782.70   1.56986135 
782.80   1.57061968 
782.90   1.57136584 
783.00   1.57209984 
783.10   1.57282170 
783.20   1.57353144 
783.30   1.57422908 
783.40   1.57491463 
783.50   1.57558810 
783.60   1.57624952 
783.70   1.57689889 
783.80   1.57753624 
783.90   1.57816158 
784.00   1.57877491 
784.10   1.57937627 
784.20   1.57996565 
784.30   1.58054307 
784.40   1.58110855 
784.50   1.58166210 
784.60   1.58220373 
784.70   1.58273345 
784.80   1.58325128 
784.90   1.58375722 
785.00   1.58425129 
785.10   1.58473350 
785.20   1.58520387 
785.30   1.58566239 
785.40   1.58610908 
785.50   1.58654396 
785.60   1.58696702 
785.70   1.58737829 
785.80   1.58777776 
785.90   1.58816545 
786.00   1.58854137 
786.10   1.58890552 
786.20   1.58925792 
786.30   1.58959857 
786.40   1.58992748 
786.50   1.59024465 
786.60   1.59055010 
786.70   1.59084382 
786.80   1.59112583 
786.90   1.59139614 
787.00   1.59165474 
787.10   1.59190164 
787.20   1.59213686 
787.30   1.59236039 
787.40   1.59257224 
787.50   1.59277242 
787.60   1.59296092 
787.70   1.59313775 
787.80   1.59330293 
787.90   1.59345644 
788.00   1.59359829 
788.10   1.59372850 
788.20   1.59384705 
788.30   1.59395395 
788.40   1.59404921 
788.50   1.59413283 
788.60   1.59420481 
788.70   1.59426514 
788.80   1.59431384 
788.90   1.59435089 
789.00   1.59437632 
789.10   1.59439010 
789.20   1.59439225 
789.30   1.59438277 
789.40   1.59436164 
789.50   1.59432888 
789.60   1.59428449 
789.70   1.59422845 
789.80   1.59416078 
789.90   1.59408147 
790.00   1.59399051 
790.10   1.59388791 
790.20   1.59377366 
790.30   1.59364776 
790.40   1.59351021 
790.50   1.59336101 
790.60   1.59320014 
790.70   1.59302762 
790.80   1.59284343 
790.90   1.59264757 
791.00   1.59244003 
791.10   1.59222082 
791.20   1.43979508 
791.30   1.44179819 
791.40   1.44378619 
791.50   1.44575916 
791.60   1.44771716 
791.70   1.44966025 
791.80   1.45158848 
791.90   1.45350192 
792.00   1.45540063 
792.10   1.45728466 
792.20   1.45915406 
792.30   1.46100891 
792.40   1.46284924 
792.50   1.46467512 
792.60   1.46648660 
792.70   1.46828373 
792.80   1.47006657 
792.90   1.47183517 
793.00   1.47358957 
793.10   1.47532984 
793.20   1.47705601 
793.30   1.47876814 
793.40   1.48046628 
793.50   1.48215048 
793.60   1.48382077 
793.70   1.48547722 
793.80   1.48711987 
793.90   1.48874875 
794.00   1.49036393 
794.10   1.49196543 
794.20   1.49355331 
794.30   1.49512761 
794.40   1.49668838 
794.50   1.49823564 
794.60   1.49976945 
794.70   1.50128985 
794.80   1.50279688 
794.90   1.50429057 
795.00   1.50577097 
795.10   1.50723812 
795.20   1.50869206 
795.30   1.51013282 
795.40   1.51156044 
795.50   1.51297495 
795.60   1.51437641 
795.70   1.51576483 
795.80   1.51714027 
795.90   1.51850274 
796.00   1.51985229 
796.10   1.52118896 
796.20   1.52251277 
796.30   1.52382376 
796.40   1.52512196 
796.50   1.52640741 
796.60   1.52768013 
796.70   1.52894016 
796.80   1.53018754 
796.90   1.53142228 
797.00   1.53264443 
797.10   1.53385400 
797.20   1.53505104 
797.30   1.53623557 
797.40   1.53740762 
797.50   1.53856722 
797.60   1.53971440 
797.70   1.54084918 
797.80   1.54197159 
797.90   1.54308166 
798.00   1.54417941 
798.10   1.54526488 
798.20   1.54633808 
798.30   1.54739905 
798.40   1.54844780 
798.50   1.54948437 
798.60   1.55050877 
798.70   1.55152104 
798.80   1.55252119 
798.90   1.55350925 
799.00   1.55448524 
799.10   1.55544918 
799.20   1.55640110 
799.30   1.55734102 
799.40   1.55826896 
799.50   1.55918494 
799.60   1.56008899 
799.70   1.56098112 
799.80   1.56186135 
799.90   1.56272970 
800.00   1.56358621 
800.10   1.56443087 
800.20   1.56526371 
800.30   1.56608476 
800.40   1.56689403 
800.50   1.56769153 
800.60   1.56847730 
800.70   1.56925133 
800.80   1.57001366 
800.90   1.57076429 
801.00   1.57150325 
801.10   1.57223055 
801.20   1.57294621 
801.30   1.57365024 
801.40   1.57434266 
801.50   1.57502349 
801.60   1.57569273 
801.70   1.57635041 
801.80   1.57699654 
801.90   1.57763113 
802.00   1.57825419 
802.10   1.57886575 
802.20   1.57946581 
802.30   1.58005439 
802.40   1.58063149 
802.50   1.58119714 
802.60   1.58175134 
802.70   1.58229411 
802.80   1.58282546 
802.90   1.58334540 
803.00   1.58385394 
803.10   1.58435109 
803.20   1.58483686 
803.30   1.58531127 
803.40   1.58577432 
803.50   1.58622602 
803.60   1.58666639 
803.70   1.58709542 
803.80   1.58751314 
803.90   1.58791955 
804.00   1.58831466 
804.10   1.58869848 
804.20   1.58907101 
804.30   1.58943227 
804.40   1.58978226 
804.50   1.59012099 
804.60   1.59044846 
804.70   1.59076469 
804.80   1.59106967 
804.90   1.59136342 
805.00   1.59164595 
805.10   1.59191725 
805.20   1.59217734 
805.30   1.59242622 
805.40   1.59266389 
805.50   1.59289036 
805.60   1.59310563 
805.70   1.59330972 
805.80   1.59350262 
805.90   1.59368433 
806.00   1.59385487 
806.10   1.59401424 
806.20   1.59416243 
806.30   1.59429945 
806.40   1.59442531 
806.50   1.59454000 
806.60   1.59464353 
806.70   1.59473591 
806.80   1.59481713 
806.90   1.59488719 
807.00   1.59494610 
807.10   1.59499386 
807.20   1.59503047 
807.30   1.59505592 
807.40   1.59507023 
807.50   1.59507339 
807.60   1.59506539 
807.70   1.59504625 
807.80   1.59501596 
807.90   1.59497452 
808.00   1.59492192 
808.10   1.59485818 
808.20   1.59478328 
808.30   1.59469722 
808.40   1.59460001 
808.50   1.59449164 
808.60   1.59437210 
808.70   1.59424140 
808.80   1.59409954 
808.90   1.59394650 
809.00   1.59378230 
809.10   1.59360691 
809.20   1.59342035 
809.30   1.59322260 
809.40   1.59301366 
809.50   1.59279353 
809.60   1.59256220 
809.70   1.59231967 
809.80   1.59206593 
809.90   1.43757406 
810.00   1.43955413 
810.10   1.44151968 
810.20   1.44347078 
810.30   1.44540748 
810.40   1.44732984 
810.50   1.44923792 
810.60   1.45113177 
810.70   1.45301145 
810.80   1.45487701 
810.90   1.45672851 
811.00   1.45856600 
811.10   1.46038954 
811.20   1.46219917 
811.30   1.46399495 
811.40   1.46577693 
811.50   1.46754516 
811.60   1.46929969 
811.70   1.47104056 
811.80   1.47276783 
811.90   1.47448155 
812.00   1.47618175 
812.10   1.47786850 
812.20   1.47954182 
812.30   1.48120178 
812.40   1.48284841 
812.50   1.48448176 
812.60   1.48610187 
812.70   1.48770879 
812.80   1.48930256 
812.90   1.49088322 
813.00   1.49245081 
813.10   1.49400537 
813.20   1.49554695 
813.30   1.49707558 
813.40   1.49859130 
813.50   1.50009416 
813.60   1.50158419 
813.70   1.50306143 
813.80   1.50452591 
813.90   1.50597768 
814.00   1.50741677 
814.10   1.50884322 
814.20   1.51025706 
814.30   1.51165833 
814.40   1.51304707 
814.50   1.51442330 
814.60   1.51578707 
814.70   1.51713840 
814.80   1.51847733 
814.90   1.51980389 
815.00   1.52111811 
815.10   1.52242004 
815.20   1.52370968 
815.30   1.52498709 
815.40   1.52625229 
815.50   1.52750531 
815.60   1.52874617 
815.70   1.52997492 
815.80   1.53119157 
815.90   1.53239617 
816.00   1.53358872 
816.10   1.53476928 
816.20   1.53593785 
816.30   1.53709447 
816.40   1.53823917 
816.50   1.53937197 
816.60   1.54049290 
816.70   1.54160198 
816.80   1.54269924 
816.90   1.54378471 
817.00   1.54485841 
817.10   1.54592036 
817.20   1.54697060 
817.30   1.54800913 
817.40   1.54903599 
817.50   1.55005120 
817.60   1.55105478 
817.70   1.55204676 
817.80   1.55302716 
817.90   1.55399599 
818.00   1.55495328 
818.10   1.55589906 
818.20   1.55683334 
818.30   1.55775614 
818.40   1.55866749 
818.50   1.55956740 
818.60   1.56045589 
818.70   1.56133299 
818.80   1.56219871 
818.90   1.56305307 
819.00   1.56389609 
819.10   1.56472779 
819.20   1.56554819 
819.30   1.56635730 
819.40   1.56715514 
819.50   1.56794173 
819.60   1.56871709 
819.70   1.56948123 
819.80   1.57023417 
819.90   1.57097592 
820.00   1.57170650 
820.10   1.57242593 
820.20   1.57313423 
820.30   1.57383139 
820.40   1.57451745 
820.50   1.57519242 
820.60   1.57585631 
820.70   1.57650913 
820.80   1.57715089 
820.90   1.57778162 
821.00   1.57840133 
821.10   1.57901002 
821.20   1.57960771 
821.30   1.58019442 
821.40   1.58077015 
821.50   1.58133492 
821.60   1.58188873 
821.70   1.58243161 
821.80   1.58296356 
821.90   1.58348459 
822.00   1.58399471 
822.10   1.58449394 
822.20   1.58498228 
822.30   1.58545975 
822.40   1.58592635 
822.50   1.58638209 
822.60   1.58682699 
822.70   1.58726105 
822.80   1.58768428 
822.90   1.58809669 
823.00   1.58849829 
823.10   1.58888908 
823.20   1.58926908 
823.30   1.58963829 
823.40   1.58999672 
823.50   1.59034438 
823.60   1.59068127 
823.70   1.59100740 
823.80   1.59132278 
823.90   1.59162741 
824.00   1.59192130 
824.10   1.59220446 
824.20   1.59247689 
824.30   1.59273860 
824.40   1.59298959 
824.50   1.59322987 
824.60   1.59345944 
824.70   1.59367830 
824.80   1.59388647 
824.90   1.59408394 
825.00   1.59427072 
825.10   1.59444682 
825.20   1.59461223 
825.30   1.59476697 
825.40   1.59491102 
825.50   1.59504440 
825.60   1.59516711 
825.70   1.59527916 
825.80   1.59538053 
825.90   1.59547124 
826.00   1.59555129 
826.10   1.59562068 
826.20   1.59567941 
826.30   1.59572747 
826.40   1.59576489 
826.50   1.59579164 
826.60   1.59580774 
826.70   1.59581318 
826.80   1.59580797 
826.90   1.59579210 
827.00   1.59576557 
827.10   1.59572839 
827.20   1.59568055 
827.30   1.59562205 
827.40   1.59555290 
827.50   1.59547308 
827.60   1.59538260 
827.70   1.59528145 
827.80   1.59516964 
827.90   1.59504716 
828.00   1.59491401 
828.10   1.59477018 
828.20   1.59461568 
828.30   1.59445050 
828.40   1.59427463 
828.50   1.59408808 
828.60   1.59389084 
828.70   1.59368290 
828.80   1.59346426 
828.90   1.59323492 
829.00   1.59299488 
829.10   1.59274412 
829.20   1.59248264 
829.30   1.59221044 
829.40   1.43388983 
829.50   1.43585506 
829.60   1.43780633 
829.70   1.43974369 
829.80   1.44166720 
829.90   1.44357692 
830.00   1.44547289 
830.10   1.44735517 
830.20   1.44922381 
830.30   1.45107888 
830.40   1.45292041 
830.50   1.45474846 
830.60   1.45656309 
830.70   1.45836433 
830.80   1.46015225 
830.90   1.46192689 
831.00   1.46368829 
831.10   1.46543652 
831.20   1.46717160 
831.30   1.46889360 
831.40   1.47060255 
831.50   1.47229850 
831.60   1.47398150 
831.70   1.47565159 
831.80   1.47730881 
831.90   1.47895321 
832.00   1.48058483 
832.10   1.48220372 
832.20   1.48380990 
832.30   1.48540343 
832.40   1.48698435 
832.50   1.48855270 
832.60   1.49010851 
832.70   1.49165182 
832.80   1.49318268 
832.90   1.49470112 
833.00   1.49620718 
833.10   1.49770090 
833.20   1.49918231 
833.30   1.50065145 
833.40   1.50210836 
833.50   1.50355307 
833.60   1.50498562 
833.70   1.50640604 
833.80   1.50781437 
833.90   1.50921064 
834.00   1.51059488 
834.10   1.51196712 
834.20   1.51332741 
834.30   1.51467577 
834.40   1.51601223 
834.50   1.51733682 
834.60   1.51864958 
834.70   1.51995054 
834.80   1.52123972 
834.90   1.52251716 
835.00   1.52378289 
835.10   1.52503693 
835.20   1.52627932 
835.30   1.52751007 
835.40   1.52872923 
835.50   1.52993682 
835.60   1.53113286 
835.70   1.53231739 
835.80   1.53349042 
835.90   1.53465199 
836.00   1.53580212 
836.10   1.53694084 
836.20   1.53806818 
836.30   1.53918415 
836.40   1.54028878 
836.50   1.54138210 
836.60   1.54246413 
836.70   1.54353489 
836.80   1.54459442 
836.90   1.54564272 
837.00   1.54667983 
837.10   1.54770577 
837.20   1.54872055 
837.30   1.54972420 
837.40   1.55071675 
837.50   1.55169821 
837.60   1.55266861 
837.70   1.55362796 
837.80   1.55457628 
837.90   1.55551361 
838.00   1.55643994 
838.10   1.55735532 
838.20   1.55825974 
838.30   1.55915325 
838.40   1.56003584 
838.50   1.56090755 
838.60   1.56176838 
838.70   1.56261836 
838.80   1.56345751 
838.90   1.56428584 
839.00   1.56510337 
839.10   1.56591012 
839.20   1.56670609 
839.30   1.56749132 
839.40   1.56826582 
839.50   1.56902959 
839.60   1.56978267 
839.70   1.57052505 
839.80   1.57125676 
839.90   1.57197782 
840.00   1.57268823 
840.10   1.57338802 
840.20   1.57407719 
840.30   1.57475576 
840.40   1.57542375 
840.50   1.57608116 
840.60   1.57672801 
840.70   1.57736432 
840.80   1.57799009 
840.90   1.57860534 
841.00   1.57921008 
841.10   1.57980432 
841.20   1.58038808 
841.30   1.58096136 
841.40   1.58152419 
841.50   1.58207656 
841.60   1.58261849 
841.70   1.58314999 
841.80   1.58367107 
841.90   1.58418175 
842.00   1.58468202 
842.10   1.58517191 
842.20   1.58565142 
842.30   1.58612056 
842.40   1.58657933 
842.50   1.58702776 
842.60   1.58746584 
842.70   1.58789359 
842.80   1.58831102 
842.90   1.58871812 
843.00   1.58911492 
843.10   1.58950141 
843.20   1.58987761 
843.30   1.59024353 
843.40   1.59059916 
843.50   1.59094452 
843.60   1.59127961 
843.70   1.59160444 
843.80   1.59191902 
843.90   1.59222335 
844.00   1.59251744 
844.10   1.59280129 
844.20   1.59307492 
844.30   1.59333831 
844.40   1.59359149 
844.50   1.59383445 
844.60   1.59406720 
844.70   1.59428975 
844.80   1.59450209 
844.90   1.59470423 
845.00   1.59489618 
845.10   1.59507794 
845.20   1.59524952 
845.30   1.59541091 
845.40   1.59556211 
845.50   1.59570315 
845.60   1.59583400 
845.70   1.59595469 
845.80   1.59606520 
845.90   1.59616554 
846.00   1.59625572 
846.10   1.59633574 
846.20   1.59640559 
846.30   1.59646528 
846.40   1.59651481 
846.50   1.59655418 
846.60   1.59658339 
846.70   1.59660245 
846.80   1.59661135 
846.90   1.59661008 
847.00   1.59659866 
847.10   1.59657709 
847.20   1.59654535 
847.30   1.59650346 
847.40   1.59645141 
847.50   1.59638919 
847.60   1.59631682 
847.70   1.59623428 
847.80   1.59614157 
847.90   1.59603870 
848.00   1.59592566 
848.10   1.59580245 
848.20   1.59566907 
848.30   1.59552551 
848.40   1.59537177 
848.50   1.59520786 
848.60   1.59503375 
848.70   1.59484946 
848.80   1.59465498 
848.90   1.59445031 
849.00   1.59423543 
849.10   1.59401035 
849.20   1.59377507 
849.30   1.59352957 
849.40   1.59327385 
849.50   1.59300792 
849.60   1.59273175 
849.70   1.59244536 
849.80   1.59214873 
849.90   1.43272266 
850.00   1.43465297 
850.10   1.43656994 
850.20   1.43847364 
850.30   1.44036411 
850.40   1.44224141 
850.50   1.44410558 
850.60   1.44595668 
850.70   1.44779476 
850.80   1.44961987 
850.90   1.45143205 
851.00   1.45323135 
851.10   1.45501783 
851.20   1.45679153 
851.30   1.45855249 
851.40   1.46030077 
851.50   1.46203640 
851.60   1.46375943 
851.70   1.46546992 
851.80   1.46716789 
851.90   1.46885340 
852.00   1.47052648 
852.10   1.47218718 
852.20   1.47383555 
852.30   1.47547162 
852.40   1.47709543 
852.50   1.47870702 
852.60   1.48030644 
852.70   1.48189373 
852.80   1.48346891 
852.90   1.48503204 
853.00   1.48658314 
853.10   1.48812226 
853.20   1.48964943 
853.30   1.49116470 
853.40   1.49266809 
853.50   1.49415964 
853.60   1.49563939 
853.70   1.49710737 
853.80   1.49856362 
853.90   1.50000818 
854.00   1.50144106 
854.10   1.50286232 
854.20   1.50427198 
854.30   1.50567007 
854.40   1.50705663 
854.50   1.50843168 
854.60   1.50979527 
854.70   1.51114741 
854.80   1.51248815 
854.90   1.51381751 
855.00   1.51513552 
855.10   1.51644221 
855.20   1.51773761 
855.30   1.51902175 
855.40   1.52029466 
855.50   1.52155637 
855.60   1.52280690 
855.70   1.52404628 
855.80   1.52527453 
855.90   1.52649170 
856.00   1.52769779 
856.10   1.52889285 
856.20   1.53007688 
856.30   1.53124993 
856.40   1.53241201 
856.50   1.53356316 
856.60   1.53470338 
856.70   1.53583272 
856.80   1.53695118 
856.90   1.53805881 
857.00   1.53915561 
857.10   1.54024162 
857.20   1.54131685 
857.30   1.54238133 
857.40   1.54343508 
857.50   1.54447812 
857.60   1.54551048 
857.70   1.54653217 
857.80   1.54754322 
857.90   1.54854364 
858.00   1.54953347 
858.10   1.55051271 
858.20   1.55148139 
858.30   1.55243953 
858.40   1.55338715 
858.50   1.55432426 
858.60   1.55525089 
858.70   1.55616706 
858.80   1.55707277 
858.90   1.55796806 
859.00   1.55885294 
859.10   1.55972742 
859.20   1.56059153 
859.30   1.56144528 
859.40   1.56228869 
859.50   1.56312178 
859.60   1.56394455 
859.70   1.56475704 
859.80   1.56555925 
859.90   1.56635120 
860.00   1.56713290 
860.10   1.56790438 
860.20   1.56866564 
860.30   1.56941670 
860.40   1.57015758 
860.50   1.57088829 
860.60   1.57160884 
860.70   1.57231925 
860.80   1.57301953 
860.90   1.57370970 
861.00   1.57438976 
861.10   1.57505974 
861.20   1.57571964 
861.30   1.57636948 
861.40   1.57700927 
861.50   1.57763902 
861.60   1.57825874 
861.70   1.57886845 
861.80   1.57946816 
861.90   1.58005787 
862.00   1.58063761 
862.10   1.58120737 
862.20   1.58176718 
862.30   1.58231704 
862.40   1.58285696 
862.50   1.58338696 
862.60   1.58390703 
862.70   1.58441720 
862.80   1.58491747 
862.90   1.58540786 
863.00   1.58588836 
863.10   1.58635899 
863.20   1.58681977 
863.30   1.58727068 
863.40   1.58771176 
863.50   1.58814300 
863.60   1.58856440 
863.70   1.58897599 
863.80   1.58937777 
863.90   1.58976974 
864.00   1.59015191 
864.10   1.59052429 
864.20   1.59088688 
864.30   1.59123970 
864.40   1.59158275 
864.50   1.59191603 
864.60   1.59223955 
864.70   1.59255332 
864.80   1.59285734 
864.90   1.59315162 
865.00   1.59343617 
865.10   1.59371098 
865.20   1.59397607 
865.30   1.59423143 
865.40   1.59447709 
865.50   1.59471302 
865.60   1.59493926 
865.70   1.59515578 
865.80   1.59536261 
865.90   1.59555974 
866.00   1.59574718 
866.10   1.59592494 
866.20   1.59609300 
866.30   1.59625139 
866.40   1.59640009 
866.50   1.59653912 
866.60   1.59666847 
866.70   1.59678815 
866.80   1.59689817 
866.90   1.59699851 
867.00   1.59708919 
867.10   1.59717020 
867.20   1.59724155 
867.30   1.59730324 
867.40   1.59735527 
867.50   1.59739764 
867.60   1.59743035 
867.70   1.59745341 
867.80   1.59746680 
867.90   1.59747054 
868.00   1.59746462 
868.10   1.59744904 
868.20   1.59742381 
868.30   1.59738891 
868.40   1.59734436 
868.50   1.59729015 
868.60   1.59722628 
868.70   1.59715275 
868.80   1.59706955 
868.90   1.59697669 
869.00   1.59687416 
869.10   1.59676196 
869.20   1.59664010 
869.30   1.59650856 
869.40   1.59636734 
869.50   1.59621645 
869.60   1.59605588 
869.70   1.59588563 
869.80   1.59570569 
869.90   1.59551606 
870.00   1.59531673 
870.10   1.59510772 
870.20   1.59488900 
870.30   1.59466057 
870.40   1.59442244 
870.50   1.59417459 
870.60   1.59391703 
870.70   1.59364975 
870.80   1.59337273 
870.90   1.59308599 
871.00   1.59278951 
871.10   1.59248329 
871.20   1.59216731 
871.30   1.59184159 
871.40   1.42834086 
871.50   1.43025546 
871.60   1.43215728 
871.70   1.43404637 
871.80   1.43592280 
871.90   1.43778660 
872.00   1.43963783 
872.10   1.44147654 
872.20   1.44330276 
872.30   1.44511656 
872.40   1.44691798 
872.50   1.44870705 
872.60   1.45048384 
872.70   1.45224838 
872.80   1.45400072 
872.90   1.45574090 
873.00   1.45746897 
873.10   1.45918496 
873.20   1.46088893 
873.30   1.46258091 
873.40   1.46426095 
873.50   1.46592908 
873.60   1.46758535 
873.70   1.46922980 
873.80   1.47086246 
873.90   1.47248338 
874.00   1.47409260 
874.10   1.47569014 
874.20   1.47727606 
874.30   1.47885039 
874.40   1.48041316 
874.50   1.48196441 
874.60   1.48350418 
874.70   1.48503250 
874.80   1.48654942 
874.90   1.48805495 
875.00   1.48954915 
875.10   1.49103203 
875.20   1.49250365 
875.30   1.49396402 
875.40   1.49541318 
875.50   1.49685117 
875.60   1.49827802 
875.70   1.49969375 
875.80   1.50109841 
875.90   1.50249202 
876.00   1.50387460 
876.10   1.50524621 
876.20   1.50660685 
876.30   1.50795657 
876.40   1.50929538 
876.50   1.51062333 
876.60   1.51194044 
876.70   1.51324673 
876.80   1.51454224 
876.90   1.51582699 
877.00   1.51710101 
877.10   1.51836433 
877.20   1.51961698 
877.30   1.52085897 
877.40   1.52209034 
877.50   1.52331111 
877.60   1.52452131 
877.70   1.52572096 
877.80   1.52691009 
877.90   1.52808873 
878.00   1.52925689 
878.10   1.53041460 
878.20   1.53156188 
878.30   1.53269876 
878.40   1.53382526 
878.50   1.53494141 
878.60   1.53604722 
878.70   1.53714272 
878.80   1.53822793 
878.90   1.53930287 
879.00   1.54036757 
879.10   1.54142204 
879.20   1.54246631 
879.30   1.54350040 
879.40   1.54452432 
879.50   1.54553810 
879.60   1.54654175 
879.70   1.54753530 
879.80   1.54851877 
879.90   1.54949218 
880.00   1.55045554 
880.10   1.55140887 
880.20   1.55235219 
880.30   1.55328553 
880.40   1.55420889 
880.50   1.55512230 
880.60   1.55602577 
880.70   1.55691932 
880.80   1.55780297 
880.90   1.55867674 
881.00   1.55954063 
881.10   1.56039467 
881.20   1.56123888 
881.30   1.56207327 
881.40   1.56289785 
881.50   1.56371264 
881.60   1.56451766 
881.70   1.56531292 
881.80   1.56609843 
881.90   1.56687422 
882.00   1.56764029 
882.10   1.56839666 
882.20   1.56914334 
882.30   1.56988036 
882.40   1.57060771 
882.50   1.57132541 
882.60   1.57203349 
882.70   1.57273194 
882.80   1.57342079 
882.90   1.57410004 
883.00   1.57476972 
883.10   1.57542982 
883.20   1.57608036 
883.30   1.57672136 
883.40   1.57735283 
883.50   1.57797477 
883.60   1.57858720 
883.70   1.57919014 
883.80   1.57978358 
883.90   1.58036754 
884.00   1.58094204 
884.10   1.58150708 
884.20   1.58206267 
884.30   1.58260882 
884.40   1.58314554 
884.50   1.58367285 
884.60   1.58419075 
884.70   1.58469925 
884.80   1.58519835 
884.90   1.58568808 
885.00   1.58616843 
885.10   1.58663942 
885.20   1.58710105 
885.30   1.58755333 
885.40   1.58799628 
885.50   1.58842989 
885.60   1.58885417 
885.70   1.58926914 
885.80   1.58967480 
885.90   1.59007116 
886.00   1.59045822 
886.10   1.59083599 
886.20   1.59120448 
886.30   1.59156369 
886.40   1.59191363 
886.50   1.59225431 
886.60   1.59258573 
886.70   1.59290790 
886.80   1.59322083 
886.90   1.59352451 
887.00   1.59381896 
887.10   1.59410418 
887.20   1.59438017 
887.30   1.59464694 
887.40   1.59490449 
887.50   1.59515284 
887.60   1.59539197 
887.70   1.59562191 
887.80   1.59584264 
887.90   1.59605418 
888.00   1.59625653 
888.10   1.59644968 
888.20   1.59663366 
888.30   1.59680845 
888.40   1.59697406 
888.50   1.59713050 
888.60   1.59727777 
888.70   1.59741586 
888.80   1.59754479 
888.90   1.59766455 
889.00   1.59777514 
889.10   1.59787658 
889.20   1.59796885 
889.30   1.59805197 
889.40   1.59812592 
889.50   1.59819073 
889.60   1.59824637 
889.70   1.59829287 
889.80   1.59833021 
889.90   1.59835839 
890.00   1.59837743 
890.10   1.59838731 
890.20   1.59838805 
890.30   1.59837963 
890.40   1.59836206 
890.50   1.59833533 
890.60   1.59829946 
890.70   1.59825443 
890.80   1.59820025 
890.90   1.59813691 
891.00   1.59806442 
891.10   1.59798277 
891.20   1.59789196 
891.30   1.59779200 
891.40   1.59768287 
891.50   1.59756457 
891.60   1.59743712 
891.70   1.59730049 
891.80   1.59715469 
891.90   1.59699972 
892.00   1.59683558 
892.10   1.59666226 
892.20   1.59647975 
892.30   1.59628806 
892.40   1.59608719 
892.50   1.59587712 
892.60   1.59565786 
892.70   1.59542940 
892.80   1.59519174 
892.90   1.59494487 
893.00   1.59468879 
893.10   1.59442349 
893.20   1.59414898 
893.30   1.59386524 
893.40   1.59357227 
893.50   1.59327006 
893.60   1.59295862 
893.70   1.59263793 
893.80   1.59230799 
893.90   1.59196879 
894.00   1.59162033 
894.10   1.42657297 
894.20   1.42845173 
894.30   1.43031834 
894.40   1.43217287 
894.50   1.43401535 
894.60   1.43584585 
894.70   1.43766439 
894.80   1.43947103 
894.90   1.44126581 
895.00   1.44304878 
895.10   1.44481998 
895.20   1.44657945 
895.30   1.44832723 
895.40   1.45006337 
895.50   1.45178791 
895.60   1.45350090 
895.70   1.45520236 
895.80   1.45689234 
895.90   1.45857089 
896.00   1.46023804 
896.10   1.46189383 
896.20   1.46353829 
896.30   1.46517148 
896.40   1.46679342 
896.50   1.46840415 
896.60   1.47000370 
896.70   1.47159213 
896.80   1.47316945 
896.90   1.47473571 
897.00   1.47629095 
897.10   1.47783519 
897.20   1.47936847 
897.30   1.48089083 
897.40   1.48240229 
897.50   1.48390290 
897.60   1.48539268 
897.70   1.48687167 
897.80   1.48833990 
897.90   1.48979740 
898.00   1.49124421 
898.10   1.49268034 
898.20   1.49410585 
898.30   1.49552075 
898.40   1.49692507 
898.50   1.49831885 
898.60   1.49970211 
898.70   1.50107489 
898.80   1.50243721 
898.90   1.50378910 
899.00   1.50513059 
899.10   1.50646170 
899.20   1.50778247 
899.30   1.50909292 
899.40   1.51039308 
899.50   1.51168297 
899.60   1.51296263 
899.70   1.51423207 
899.80   1.51549132 
899.90   1.51674042 
900.00   1.51797937 
900.10   1.51920821 
900.20   1.52042697 
900.30   1.52163566 
900.40   1.52283431 
900.50   1.52402295 
900.60   1.52520159 
900.70   1.52637026 
900.80   1.52752899 
900.90   1.52867780 
901.00   1.52981670 
901.10   1.53094572 
901.20   1.53206489 
901.30   1.53317422 
901.40   1.53427374 
901.50   1.53536346 
901.60   1.53644341 
901.70   1.53751361 
901.80   1.53857407 
901.90   1.53962483 
902.00   1.54066589 
902.10   1.54169728 
902.20   1.54271902 
902.30   1.54373113 
902.40   1.54473362 
902.50   1.54572651 
902.60   1.54670983 
902.70   1.54768359 
902.80   1.54864781 
902.90   1.54960250 
903.00   1.55054769 
903.10   1.55148339 
903.20   1.55240962 
903.30   1.55332639 
903.40   1.55423373 
903.50   1.55513164 
903.60   1.55602016 
903.70   1.55689928 
903.80   1.55776903 
903.90   1.55862942 
904.00   1.55948048 
904.10   1.56032220 
904.20   1.56115462 
904.30   1.56197773 
904.40   1.56279157 
904.50   1.56359614 
904.60   1.56439146 
904.70   1.56517754 
904.80   1.56595439 
904.90   1.56672204 
905.00   1.56748048 
905.10   1.56822974 
905.20   1.56896983 
905.30   1.56970077 
905.40   1.57042255 
905.50   1.57113521 
905.60   1.57183874 
905.70   1.57253317 
905.80   1.57321850 
905.90   1.57389475 
906.00   1.57456192 
906.10   1.57522004 
906.20   1.57586910 
906.30   1.57650913 
906.40   1.57714013 
906.50   1.57776211 
906.60   1.57837509 
906.70   1.57897907 
906.80   1.57957407 
906.90   1.58016009 
907.00   1.58073715 
907.10   1.58130525 
907.20   1.58186441 
907.30   1.58241463 
907.40   1.58295592 
907.50   1.58348830 
907.60   1.58401177 
907.70   1.58452634 
907.80   1.58503202 
907.90   1.58552881 
908.00   1.58601674 
908.10   1.58649579 
908.20   1.58696599 
908.30   1.58742734 
908.40   1.58787985 
908.50   1.58832352 
908.60   1.58875836 
908.70   1.58918439 
908.80   1.58960160 
908.90   1.59001000 
909.00   1.59040961 
909.10   1.59080043 
909.20   1.59118245 
909.30   1.59155570 
909.40   1.59192018 
909.50   1.59227588 
909.60   1.59262283 
909.70   1.59296102 
909.80   1.59329046 
909.90   1.59361115 
910.00   1.59392310 
910.10   1.59422632 
910.20   1.59452081 
910.30   1.59480658 
910.40   1.59508362 
910.50   1.59535195 
910.60   1.59561157 
910.70   1.59586248 
910.80   1.59610469 
910.90   1.59633820 
911.00   1.59656302 
911.10   1.59677914 
911.20   1.59698658 
911.30   1.59718533 
911.40   1.59737540 
911.50   1.59755679 
911.60   1.59772951 
911.70   1.59789356 
911.80   1.59804893 
911.90   1.59819564 
912.00   1.59833369 
912.10   1.59846307 
912.20   1.59858379 
912.30   1.59869585 
912.40   1.59879926 
912.50   1.59889401 
912.60   1.59898011 
912.70   1.59905755 
912.80   1.59912635 
912.90   1.59918649 
913.00   1.59923799 
913.10   1.59928084 
913.20   1.59931504 
913.30   1.59934060 
913.40   1.59935751 
913.50   1.59936577 
913.60   1.59936539 
913.70   1.59935636 
913.80   1.59933869 
913.90   1.59931237 
914.00   1.59927740 
914.10   1.59923379 
914.20   1.59918153 
914.30   1.59912062 
914.40   1.59905106 
914.50   1.59897285 
914.60   1.59888599 
914.70   1.59879047 
914.80   1.59868630 
914.90   1.59857348 
915.00   1.59845199 
915.10   1.59832184 
915.20   1.59818304 
915.30   1.59803556 
915.40   1.59787942 
915.50   1.59771461 
915.60   1.59754113 
915.70   1.59735897 
915.80   1.59716813 
915.90   1.59696861 
916.00   1.59676041 
916.10   1.59654352 
916.20   1.59631793 
916.30   1.59608366 
916.40   1.59584068 
916.50   1.59558900 
916.60   1.59532861 
916.70   1.59505951 
916.80   1.59478170 
916.90   1.59449516 
917.00   1.59419990 
917.10   1.59389591 
917.20   1.59358318 
917.30   1.59326172 
917.40   1.59293151 
917.50   1.59259254 
917.60   1.59224482 
917.70   1.59188834 
917.80   1.59152309 
917.90   1.42182928 
918.00   1.42368834 
918.10   1.42553583 
918.20   1.42737180 
918.30   1.42919630 
918.40   1.43100937 
918.50   1.43281105 
918.60   1.43460140 
918.70   1.43638044 
918.80   1.43814822 
918.90   1.43990478 
919.00   1.44165017 
919.10   1.44338443 
919.20   1.44510758 
919.30   1.44681969 
919.40   1.44852077 
919.50   1.45021088 
919.60   1.45189005 
919.70   1.45355831 
919.80   1.45521571 
919.90   1.45686229 
920.00   1.45849807 
920.10   1.46012310 
920.20   1.46173741 
920.30   1.46334104 
920.40   1.46493402 
920.50   1.46651639 
920.60   1.46808818 
920.70   1.46964942 
920.80   1.47120015 
920.90   1.47274041 
921.00   1.47427022 
921.10   1.47578962 
921.20   1.47729863 
921.30   1.47879730 
921.40   1.48028565 
921.50   1.48176371 
921.60   1.48323152 
921.70   1.48468911 
921.80   1.48613649 
921.90   1.48757372 
922.00   1.48900080 
922.10   1.49041778 
922.20   1.49182469 
922.30   1.49322154 
922.40   1.49460837 
922.50   1.49598521 
922.60   1.49735208 
922.70   1.49870901 
922.80   1.50005604 
922.90   1.50139317 
923.00   1.50272045 
923.10   1.50403790 
923.20   1.50534554 
923.30   1.50664340 
923.40   1.50793150 
923.50   1.50920987 
923.60   1.51047854 
923.70   1.51173752 
923.80   1.51298685 
923.90   1.51422654 
924.00   1.51545662 
924.10   1.51667712 
924.20   1.51788805 
924.30   1.51908945 
924.40   1.52028132 
924.50   1.52146370 
924.60   1.52263660 
924.70   1.52380006 
924.80   1.52495408 
924.90   1.52609870 
925.00   1.52723392 
925.10   1.52835978 
925.20   1.52947630 
925.30   1.53058349 
925.40   1.53168137 
925.50   1.53276997 
925.60   1.53384931 
925.70   1.53491940 
925.80   1.53598026 
925.90   1.53703191 
926.00   1.53807438 
926.10   1.53910767 
926.20   1.54013182 
926.30   1.54114683 
926.40   1.54215273 
926.50   1.54314952 
926.60   1.54413724 
926.70   1.54511590 
926.80   1.54608551 
926.90   1.54704610 
927.00   1.54799767 
927.10   1.54894025 
927.20   1.54987385 
927.30   1.55079848 
927.40   1.55171417 
927.50   1.55262094 
927.60   1.55351878 
927.70   1.55440773 
927.80   1.55528779 
927.90   1.55615899 
928.00   1.55702133 
928.10   1.55787483 
928.20   1.55871951 
928.30   1.55955538 
928.40   1.56038245 
928.50   1.56120074 
928.60   1.56201026 
928.70   1.56281102 
928.80   1.56360305 
928.90   1.56438634 
929.00   1.56516093 
929.10   1.56592681 
929.20   1.56668400 
929.30   1.56743251 
929.40   1.56817236 
929.50   1.56890356 
929.60   1.56962611 
929.70   1.57034004 
929.80   1.57104536 
929.90   1.57174207 
930.00   1.57243018 
930.10   1.57310972 
930.20   1.57378068 
930.30   1.57444308 
930.40   1.57509694 
930.50   1.57574225 
930.60   1.57637904 
930.70   1.57700731 
930.80   1.57762708 
930.90   1.57823834 
931.00   1.57884112 
931.10   1.57943542 
931.20   1.58002126 
931.30   1.58059863 
931.40   1.58116755 
931.50   1.58172804 
931.60   1.58228009 
931.70   1.58282372 
931.80   1.58335894 
931.90   1.58388575 
932.00   1.58440416 
932.10   1.58491419 
932.20   1.58541583 
932.30   1.58590911 
932.40   1.58639401 
932.50   1.58687056 
932.60   1.58733876 
932.70   1.58779862 
932.80   1.58825014 
932.90   1.58869334 
933.00   1.58912821 
933.10   1.58955477 
933.20   1.58997302 
933.30   1.59038298 
933.40   1.59078463 
933.50   1.59117800 
933.60   1.59156309 
933.70   1.59193990 
933.80   1.59230844 
933.90   1.59266871 
934.00   1.59302073 
934.10   1.59336450 
934.20   1.59370001 
934.30   1.59402728 
934.40   1.59434632 
934.50   1.59465712 
934.60   1.59495970 
934.70   1.59525405 
934.80   1.59554018 
934.90   1.59581810 
935.00   1.59608781 
935.10   1.59634931 
935.20   1.59660261 
935.30   1.59684771 
935.40   1.59708462 
935.50   1.59731334 
935.60   1.59753387 
935.70   1.59774621 
935.80   1.59795038 
935.90   1.59814637 
936.00   1.59833419 
936.10   1.59851383 
936.20   1.59868531 
936.30   1.59884862 
936.40   1.59900376 
936.50   1.59915075 
936.60   1.59928957 
936.70   1.59942024 
936.80   1.59954276 
936.90   1.59965712 
937.00   1.59976333 
937.10   1.59986139 
937.20   1.59995131 
937.30   1.60003307 
937.40   1.60010669 
937.50   1.60017217 
937.60   1.60022951 
937.70   1.60027870 
937.80   1.60031975 
937.90   1.60035266 
938.00   1.60037743 
938.10   1.60039406 
938.20   1.60040255 
938.30   1.60040290 
938.40   1.60039511 
938.50   1.60037918 
938.60   1.60035511 
938.70   1.60032290 
938.80   1.60028254 
938.90   1.60023405 
939.00   1.60017742 
939.10   1.60011264 
939.20   1.60003972 
939.30   1.59995865 
939.40   1.59986943 
939.50   1.59977207 
939.60   1.59966656 
939.70   1.59955290 
939.80   1.59943109 
939.90   1.59930112 
940.00   1.59916299 
940.10   1.59901671 
940.20   1.59886226 
940.30   1.59869965 
940.40   1.59852888 
940.50   1.59834994 
940.60   1.59816282 
940.70   1.59796754 
940.80   1.59776407 
940.90   1.59755243 
941.00   1.59733260 
941.10   1.59710459 
941.20   1.59686838 
941.30   1.59662398 
941.40   1.59637139 
941.50   1.59611059 
941.60   1.59584159 
941.70   1.59556437 
941.80   1.59527895 
941.90   1.59498530 
942.00   1.59468343 
942.10   1.59437334 
942.20   1.59405501 
942.30   1.59372845 
942.40   1.59339364 
942.50   1.59305058 
942.60   1.59269928 
942.70   1.59233971 
942.80   1.59197188 
942.90   1.59159578 
943.00   1.59121140 
943.10   1.41980689 
943.20   1.42162644 
943.30   1.42343507 
943.40   1.42523282 
943.50   1.42701973 
943.60   1.42879585 
943.70   1.43056121 
943.80   1.43231586 
943.90   1.43405984 
944.00   1.43579317 
944.10   1.43751591 
944.20   1.43922809 
944.30   1.44092974 
944.40   1.44262091 
944.50   1.44430164 
944.60   1.44597194 
944.70   1.44763188 
944.80   1.44928147 
944.90   1.45092076 
945.00   1.45254977 
945.10   1.45416855 
945.20   1.45577713 
945.30   1.45737554 
945.40   1.45896382 
945.50   1.46054200 
945.60   1.46211010 
945.70   1.46366817 
945.80   1.46521624 
945.90   1.46675433 
946.00   1.46828249 
946.10   1.46980073 
946.20   1.47130909 
946.30   1.47280760 
946.40   1.47429630 
946.50   1.47577520 
946.60   1.47724434 
946.70   1.47870376 
946.80   1.48015347 
946.90   1.48159351 
947.00   1.48302390 
947.10   1.48444467 
947.20   1.48585585 
947.30   1.48725748 
947.40   1.48864956 
947.50   1.49003214 
947.60   1.49140523 
947.70   1.49276887 
947.80   1.49412307 
947.90   1.49546787 
948.00   1.49680330 
948.10   1.49812936 
948.20   1.49944610 
948.30   1.50075353 
948.40   1.50205169 
948.50   1.50334058 
948.60   1.50462024 
948.70   1.50589069 
948.80   1.50715196 
948.90   1.50840406 
949.00   1.50964703 
949.10   1.51088087 
949.20   1.51210562 
949.30   1.51332130 
949.40   1.51452792 
949.50   1.51572552 
949.60   1.51691410 
949.70   1.51809370 
949.80   1.51926433 
949.90   1.52042602 
950.00   1.52157878 
950.10   1.52272264 
950.20   1.52385761 
950.30   1.52498372 
950.40   1.52610098 
950.50   1.52720941 
950.60   1.52830904 
950.70   1.52939988 
950.80   1.53048195 
950.90   1.53155527 
951.00   1.53261986 
951.10   1.53367574 
951.20   1.53472291 
951.30   1.53576142 
951.40   1.53679126 
951.50   1.53781245 
951.60   1.53882502 
951.70   1.53982899 
951.80   1.54082436 
951.90   1.54181115 
952.00   1.54278939 
952.10   1.54375908 
952.20   1.54472025 
952.30   1.54567290 
952.40   1.54661706 
952.50   1.54755275 
952.60   1.54847996 
952.70   1.54939873 
952.80   1.55030907 
952.90   1.55121098 
953.00   1.55210449 
953.10   1.55298961 
953.20   1.55386636 
953.30   1.55473475 
953.40   1.55559478 
953.50   1.55644649 
953.60   1.55728987 
953.70   1.55812495 
953.80   1.55895173 
953.90   1.55977024 
954.00   1.56058048 
954.10   1.56138246 
954.20   1.56217621 
954.30   1.56296172 
954.40   1.56373902 
954.50   1.56450811 
954.60   1.56526902 
954.70   1.56602174 
954.80   1.56676630 
954.90   1.56750269 
955.00   1.56823095 
955.10   1.56895107 
955.20   1.56966306 
955.30   1.57036695 
955.40   1.57106274 
955.50   1.57175043 
955.60   1.57243005 
955.70   1.57310160 
955.80   1.57376509 
955.90   1.57442053 
956.00   1.57506793 
956.10   1.57570731 
956.20   1.57633866 
956.30   1.57696201 
956.40   1.57757736 
956.50   1.57818472 
956.60   1.57878410 
956.70   1.57937550 
956.80   1.57995895 
956.90   1.58053444 
957.00   1.58110198 
957.10   1.58166159 
957.20   1.58221327 
957.30   1.58275703 
957.40   1.58329288 
957.50   1.58382082 
957.60   1.58434087 
957.70   1.58485303 
957.80   1.58535731 
957.90   1.58585372 
958.00   1.58634226 
958.10   1.58682295 
958.20   1.58729578 
958.30   1.58776077 
958.40   1.58821792 
958.50   1.58866724 
958.60   1.58910874 
958.70   1.58954242 
958.80   1.58996829 
958.90   1.59038635 
959.00   1.59079662 
959.10   1.59119909 
959.20   1.59159378 
959.30   1.59198069 
959.40   1.59235982 
959.50   1.59273118 
959.60   1.59309478 
959.70   1.59345062 
959.80   1.59379870 
959.90   1.59413904 
960.00   1.59447164 
960.10   1.59479649 
960.20   1.59511361 
960.30   1.59542300 
960.40   1.59572467 
960.50   1.59601862 
960.60   1.59630485 
960.70   1.59658337 
960.80   1.59685418 
960.90   1.59711729 
961.00   1.59737269 
961.10   1.59762040 
961.20   1.59786042 
961.30   1.59809275 
961.40   1.59831739 
961.50   1.59853435 
961.60   1.59874362 
961.70   1.59894523 
961.80   1.59913915 
961.90   1.59932541 
962.00   1.59950400 
962.10   1.59967492 
962.20   1.59983818 
962.30   1.59999378 
962.40   1.60014172 
962.50   1.60028200 
962.60   1.60041463 
962.70   1.60053960 
962.80   1.60065693 
962.90   1.60076660 
963.00   1.60086863 
963.10   1.60096301 
963.20   1.60104975 
963.30   1.60112884 
963.40   1.60120029 
963.50   1.60126410 
963.60   1.60132027 
963.70   1.60136880 
963.80   1.60140969 
963.90   1.60144294 
964.00   1.60146855 
964.10   1.60148652 
964.20   1.60149686 
964.30   1.60149956 
964.40   1.60149463 
964.50   1.60148205 
964.60   1.60146184 
964.70   1.60143399 
964.80   1.60139850 
964.90   1.60135538 
965.00   1.60130461 
965.10   1.60124621 
965.20   1.60118016 
965.30   1.60110647 
965.40   1.60102514 
965.50   1.60093617 
965.60   1.60083955 
965.70   1.60073528 
965.80   1.60062337 
965.90   1.60050380 
966.00   1.60037659 
966.10   1.60024172 
966.20   1.60009919 
966.30   1.59994901 
966.40   1.59979117 
966.50   1.59962567 
966.60   1.59945250 
966.70   1.59927167 
966.80   1.59908316 
966.90   1.59888699 
967.00   1.59868314 
967.10   1.59847161 
967.20   1.59825240 
967.30   1.59802551 
967.40   1.59779093 
967.50   1.59754866 
967.60   1.59729870 
967.70   1.59704104 
967.80   1.59677568 
967.90   1.59650261 
968.00   1.59622183 
968.10   1.59593335 
968.20   1.59563714 
968.30   1.59533321 
968.40   1.59502155 
968.50   1.59470217 
968.60   1.59437505 
968.70   1.59404019 
968.80   1.59369758 
968.90   1.59334723 
969.00   1.59298912 
969.10   1.59262324 
969.20   1.59224961 
969.30   1.59186820 
969.40   1.59147902 
969.50   1.59108205 
969.60   1.41510010 
969.70   1.41689317 
969.80   1.41867591 
969.90   1.42044836 
970.00   1.42221056 
970.10   1.42396254 
970.20   1.42570434 
970.30   1.42743600 
970.40   1.42915756 
970.50   1.43086905 
970.60   1.43257051 
970.70   1.43426197 
970.80   1.43594348 
970.90   1.43761506 
971.00   1.43927675 
971.10   1.44092858 
971.20   1.44257059 
971.30   1.44420281 
971.40   1.44582528 
971.50   1.44743802 
971.60   1.44904107 
971.70   1.45063446 
971.80   1.45221823 
971.90   1.45379240 
972.00   1.45535701 
972.10   1.45691209 
972.20   1.45845766 
972.30   1.45999376 
972.40   1.46152042 
972.50   1.46303766 
972.60   1.46454552 
972.70   1.46604403 
972.80   1.46753321 
972.90   1.46901309 
973.00   1.47048370 
973.10   1.47194507 
973.20   1.47339722 
973.30   1.47484019 
973.40   1.47627400 
973.50   1.47769867 
973.60   1.47911424 
973.70   1.48052073 
973.80   1.48191816 
973.90   1.48330656 
974.00   1.48468595 
974.10   1.48605637 
974.20   1.48741783 
974.30   1.48877037 
974.40   1.49011399 
974.50   1.49144874 
974.60   1.49277463 
974.70   1.49409168 
974.80   1.49539992 
974.90   1.49669938 
975.00   1.49799007 
975.10   1.49927202 
975.20   1.50054525 
975.30   1.50180978 
975.40   1.50306563 
975.50   1.50431284 
975.60   1.50555140 
975.70   1.50678136 
975.80   1.50800273 
975.90   1.50921553 
976.00   1.51041978 
976.10   1.51161550 
976.20   1.51280272 
976.30   1.51398144 
976.40   1.51515170 
976.50   1.51631351 
976.60   1.51746689 
976.70   1.51861186 
976.80   1.51974844 
976.90   1.52087665 
977.00   1.52199651 
977.10   1.52310803 
977.20   1.52421123 
977.30   1.52530614 
977.40   1.52639276 
977.50   1.52747112 
977.60   1.52854124 
977.70   1.52960312 
977.80   1.53065680 
977.90   1.53170228 
978.00   1.53273958 
978.10   1.53376872 
978.20   1.53478972 
978.30   1.53580259 
978.40   1.53680735 
978.50   1.53780401 
978.60   1.53879259 
978.70   1.53977311 
978.80   1.54074557 
978.90   1.54171001 
979.00   1.54266642 
979.10   1.54361483 
979.20   1.54455524 
979.30   1.54548769 
979.40   1.54641217 
979.50   1.54732871 
979.60   1.54823731 
979.70   1.54913800 
979.80   1.55003078 
979.90   1.55091567 
980.00   1.55179268 
980.10   1.55266183 
980.20   1.55352313 
980.30   1.55437659 
980.40   1.55522222 
980.50   1.55606005 
980.60   1.55689007 
980.70   1.55771231 
980.80   1.55852677 
980.90   1.55933347 
981.00   1.56013242 
981.10   1.56092363 
981.20   1.56170711 
981.30   1.56248288 
981.40   1.56325095 
981.50   1.56401132 
981.60   1.56476401 
981.70   1.56550903 
981.80   1.56624640 
981.90   1.56697611 
982.00   1.56769819 
982.10   1.56841264 
982.20   1.56911947 
982.30   1.56981869 
982.40   1.57051032 
982.50   1.57119437 
982.60   1.57187084 
982.70   1.57253974 
982.80   1.57320108 
982.90   1.57385488 
983.00   1.57450114 
983.10   1.57513987 
983.20   1.57577108 
983.30   1.57639478 
983.40   1.57701098 
983.50   1.57761969 
983.60   1.57822091 
983.70   1.57881466 
983.80   1.57940094 
983.90   1.57997976 
984.00   1.58055113 
984.10   1.58111505 
984.20   1.58167155 
984.30   1.58222061 
984.40   1.58276226 
984.50   1.58329650 
984.60   1.58382333 
984.70   1.58434277 
984.80   1.58485481 
984.90   1.58535948 
985.00   1.58585677 
985.10   1.58634669 
985.20   1.58682925 
985.30   1.58730446 
985.40   1.58777231 
985.50   1.58823283 
985.60   1.58868601 
985.70   1.58913187 
985.80   1.58957040 
985.90   1.59000161 
986.00   1.59042551 
986.10   1.59084211 
986.20   1.59125141 
986.30   1.59165342 
986.40   1.59204813 
986.50   1.59243557 
986.60   1.59281573 
986.70   1.59318861 
986.80   1.59355423 
986.90   1.59391259 
987.00   1.59426369 
987.10   1.59460754 
987.20   1.59494414 
987.30   1.59527350 
987.40   1.59559562 
987.50   1.59591051 
987.60   1.59621817 
987.70   1.59651860 
987.80   1.59681181 
987.90   1.59709780 
988.00   1.59737658 
988.10   1.59764815 
988.20   1.59791251 
988.30   1.59816967 
988.40   1.59841963 
988.50   1.59866240 
988.60   1.59889797 
988.70   1.59912636 
988.80   1.59934755 
988.90   1.59956157 
989.00   1.59976840 
989.10   1.59996806 
989.20   1.60016054 
989.30   1.60034585 
989.40   1.60052399 
989.50   1.60069497 
989.60   1.60085877 
989.70   1.60101542 
989.80   1.60116490 
989.90   1.60130723 
990.00   1.60144240 
990.10   1.60157041 
990.20   1.60169127 
990.30   1.60180498 
990.40   1.60191154 
990.50   1.60201095 
990.60   1.60210321 
990.70   1.60218833 
990.80   1.60226630 
990.90   1.60233712 
991.00   1.60240081 
991.10   1.60245735 
991.20   1.60250675 
991.30   1.60254901 
991.40   1.60258413 
991.50   1.60261211 
991.60   1.60263295 
991.70   1.60264665 
991.80   1.60265321 
991.90   1.60265264 
992.00   1.60264492 
992.10   1.60263007 
992.20   1.60260807 
992.30   1.60257894 
992.40   1.60254267 
992.50   1.60249926 
992.60   1.60244870 
992.70   1.60239101 
992.80   1.60232617 
992.90   1.60225419 
993.00   1.60217506 
993.10   1.60208879 
993.20   1.60199538 
993.30   1.60189481 
993.40   1.60178710 
993.50   1.60167224 
993.60   1.60155022 
993.70   1.60142105 
993.80   1.60128473 
993.90   1.60114125 
994.00   1.60099061 
994.10   1.60083280 
994.20   1.60066784 
994.30   1.60049571 
994.40   1.60031641 
994.50   1.60012994 
994.60   1.59993630 
994.70   1.59973549 
994.80   1.59952749 
994.90   1.59931232 
995.00   1.59908996 
995.10   1.59886042 
995.20   1.59862368 
995.30   1.59837975 
995.40   1.59812863 
995.50   1.59787031 
995.60   1.59760478 
995.70   1.59733205 
995.80   1.59705210 
995.90   1.59676495 
996.00   1.59647057 
996.10   1.59616897 
996.20   1.59586015 
996.30   1.59554409 
996.40   1.59522080 
996.50   1.59489028 
996.60   1.59455250 
996.70   1.59420748 
996.80   1.59385521 
996.90   1.59349568 
997.00   1.59312889 
997.10   1.59275483 
997.20   1.59237349 
997.30   1.59198488 
997.40   1.59158899 
997.50   1.59118580 
997.60   1.59077533 
997.70   1.59035755 
997.80   1.41151474 
997.90   1.41327138 
998.00   1.41501831 
998.10   1.41675557 
998.20   1.41848318 
998.30   1.42020118 
998.40   1.42190961 
998.50   1.42360851 
998.60   1.42529790 
998.70   1.42697782 
998.80   1.42864831 
998.90   1.43030939 
999.00   1.43196111 
999.10   1.43360348 
999.20   1.43523655 
999.30   1.43686035 
999.40   1.43847490 
999.50   1.44008024 
999.60   1.44167640 
999.70   1.44326341 
999.80   1.44484130 
999.90   1.44641010 
1000.00   1.44796984 
